Date and Time:                Fri Sep 9 18:53:13.000 2022
Software Version:             4.31.30023.0
Temperature (C):              -40
Model:                        DU940P_BU2
Data Type:                    Counts
Acquisition Mode:             Single Scan
Trigger Mode:                 Internal
Exposure Time (secs):         0.2
Readout Mode:                 Full Vertical Binning
Horizontal binning:           1
Extended Dynamic Range:       off
Horizontally flipped:         false
Vertical Shift Speed (usecs): 14.51
Pixel Readout Rate (MHz):     3
Baseline Clamp:               ON
Clock Amplitude:              Normal
Output Amplifier:             High Capacity
Serial Number:                23634
Pre-Amplifier Gain:           1.000000
Spurious Noise Filter Mode:   No Filter
Photon counted:               false
Data Averaging Filter Mode:   No Filter
SR500i:
Serial Number:                
Wavelength (nm):              276
Grating Groove Density (l/mm):1199.47
Grating Blaze:                500
Output Flipper Port:          Direct
Accessory Output Port 1:      Off
Accessory Output Port 2:      Off
Accessory Output Port 3:      Off
Accessory Input Port:         On



254.33386	3870
254.35513	3691
254.37642	3686
254.39769	3702
254.41898	3720
254.44025	3760
254.46153	3752
254.4828	3752
254.50407	3739
254.52536	3744
254.54663	3735
254.56792	3714
254.58919	3708
254.61046	3756
254.63174	3787
254.65302	3760
254.67429	3762
254.69557	3806
254.71684	3799
254.73811	3770
254.75938	3778
254.78067	3785
254.80194	3792
254.82321	3850
254.84448	3793
254.86575	3797
254.88704	3759
254.90831	3771
254.92958	3741
254.95085	3785
254.97212	3826
254.99339	3835
255.01468	3844
255.03595	3824
255.05722	3827
255.07849	3860
255.09976	3855
255.12103	3881
255.1423	3894
255.16357	3942
255.18484	3901
255.20612	3924
255.22739	3929
255.24866	3916
255.26993	3928
255.2912	3967
255.31247	3959
255.33374	3975
255.35501	3951
255.37628	3956
255.39755	3975
255.41882	3971
255.44008	3981
255.46135	3990
255.48262	3985
255.50389	3978
255.52516	3957
255.54643	3984
255.56769	4016
255.58896	4020
255.61023	4059
255.6315	4058
255.65277	4077
255.67403	4063
255.6953	4070
255.71657	4074
255.73784	4075
255.75909	4070
255.78036	4049
255.80164	4090
255.82289	4062
255.84416	4042
255.86543	4022
255.88669	4024
255.90796	4035
255.92921	4071
255.95049	4015
255.97176	4062
255.99301	4057
256.01428	4046
256.03555	4021
256.05679	4074
256.07806	4067
256.09933	4061
256.12061	4123
256.14185	4126
256.16312	4131
256.18439	4135
256.20566	4097
256.2269	4083
256.24817	4107
256.26944	4119
256.29068	4123
256.31195	4147
256.33322	4088
256.35449	4107
256.37573	4150
256.397	4156
256.41827	4175
256.43951	4186
256.46078	4208
256.48206	4204
256.5033	4183
256.52457	4193
256.54581	4221
256.56708	4248
256.58835	4275
256.60959	4260
256.63086	4307
256.65213	4284
256.67337	4317
256.69464	4316
256.71588	4346
256.73715	4325
256.75839	4362
256.77966	4347
256.80093	4339
256.82217	4355
256.84344	4365
256.86469	4371
256.88596	4386
256.9072	4358
256.92847	4350
256.94971	4351
256.97098	4369
256.99222	4410
257.01349	4382
257.03473	4404
257.056	4377
257.07724	4409
257.09851	4431
257.11975	4449
257.14102	4475
257.16226	4466
257.18353	4488
257.20477	4454
257.22601	4458
257.24728	4489
257.26852	4489
257.28979	4476
257.31104	4467
257.33231	4497
257.35355	4480
257.37479	4561
257.39606	4563
257.4173	4536
257.43857	4538
257.45981	4545
257.48105	4526
257.50232	4516
257.52356	4493
257.5448	4508
257.56607	4583
257.58731	4604
257.60855	4593
257.62982	4630
257.65106	4588
257.6723	4597
257.69357	4561
257.71481	4603
257.73605	4608
257.75732	4623
257.77856	4659
257.7998	4652
257.82104	4674
257.84232	4664
257.86356	4677
257.8848	4690
257.90604	4710
257.92731	4733
257.94855	4759
257.96979	4660
257.99103	4715
258.01227	4743
258.03354	4762
258.05478	4782
258.07602	4807
258.09726	4813
258.1185	4866
258.13977	4874
258.16101	4877
258.18225	4864
258.20349	4885
258.22473	4894
258.24597	4874
258.26724	4904
258.28848	4919
258.30972	4926
258.33096	4942
258.3522	4876
258.37344	4893
258.39468	4924
258.41592	4933
258.43716	4936
258.45844	5022
258.47968	4990
258.50092	4913
258.52216	4944
258.5434	4954
258.56464	4973
258.58588	4998
258.60712	5041
258.62836	5052
258.6496	5003
258.67084	5000
258.69208	5002
258.71332	5034
258.73456	5048
258.7558	5059
258.77704	5090
258.79828	5138
258.81952	5125
258.84076	5121
258.862	5081
258.88324	5103
258.90448	5091
258.92572	5046
258.94696	5026
258.9682	5044
258.98944	5013
259.01068	5042
259.03192	5043
259.05316	5070
259.07437	5051
259.09561	5067
259.11685	5071
259.13809	5072
259.15933	5071
259.18057	5117
259.20181	5159
259.22305	5215
259.24426	5207
259.2655	5185
259.28674	5215
259.30798	5233
259.32922	5243
259.35046	5230
259.37167	5261
259.39291	5292
259.41415	5294
259.43539	5237
259.45663	5258
259.47784	5263
259.49908	5313
259.52032	5253
259.54156	5313
259.56281	5344
259.58401	5346
259.60526	5375
259.6265	5349
259.64774	5378
259.66895	5403
259.69019	5398
259.71143	5457
259.73264	5460
259.75388	5494
259.77512	5526
259.79636	5467
259.81757	5479
259.83881	5472
259.86005	5475
259.88126	5510
259.9025	5510
259.92374	5508
259.94495	5528
259.96619	5506
259.98743	5555
260.00864	5563
260.02988	5508
260.05109	5511
260.07233	5551
260.09357	5557
260.11478	5524
260.13602	5544
260.15726	5527
260.17847	5603
260.19971	5597
260.22092	5662
260.24216	5695
260.26337	5683
260.28461	5704
260.30582	5662
260.32706	5662
260.3483	5670
260.36951	5669
260.39075	5659
260.41196	5674
260.4332	5709
260.45441	5659
260.47565	5718
260.49686	5729
260.5181	5710
260.53931	5702
260.56055	5704
260.58176	5631
260.60297	5652
260.62421	5699
260.64542	5701
260.66666	5718
260.68787	5688
260.70911	5682
260.73032	5717
260.75156	5701
260.77277	5731
260.79398	5778
260.81522	5782
260.83643	5792
260.85767	5772
260.87888	5832
260.90009	5830
260.92133	5843
260.94254	5880
260.96375	5860
260.98499	5870
261.0062	5881
261.0274	5886
261.04865	5909
261.06985	5904
261.09106	5911
261.1123	5940
261.13351	5957
261.15472	5956
261.17596	5977
261.19717	5966
261.21838	5962
261.23959	5948
261.26083	5935
261.28204	5930
261.30325	5970
261.32446	5964
261.3457	5981
261.36691	5957
261.38812	5993
261.40933	6018
261.43054	6062
261.45178	6005
261.47299	6040
261.4942	6060
261.51541	6116
261.53662	6114
261.55786	6138
261.57907	6112
261.60028	6158
261.62149	6136
261.6427	6097
261.66391	6132
261.68515	6126
261.70636	6147
261.72757	6108
261.74878	6142
261.76999	6143
261.7912	6109
261.81241	6114
261.83362	6111
261.85483	6188
261.87607	6187
261.89728	6200
261.91849	6241
261.9397	6191
261.96091	6212
261.98212	6201
262.00333	6222
262.02454	6226
262.04575	6253
262.06696	6230
262.08817	6281
262.10938	6246
262.13058	6214
262.15179	6215
262.173	6319
262.19421	6304
262.21542	6339
262.23663	6349
262.25784	6331
262.27905	6305
262.30026	6291
262.32147	6311
262.34268	6318
262.36389	6356
262.3851	6415
262.40628	6405
262.42749	6423
262.4487	6484
262.46991	6454
262.49112	6467
262.51233	6515
262.53354	6485
262.55475	6507
262.57596	6441
262.59714	6467
262.61835	6490
262.63956	6484
262.66077	6487
262.68198	6456
262.70319	6475
262.72437	6479
262.74557	6505
262.76678	6563
262.78799	6537
262.8092	6551
262.83038	6536
262.85159	6605
262.8728	6629
262.89401	6619
262.91522	6624
262.9364	6669
262.95761	6682
262.97882	6614
263.00003	6634
263.02121	6636
263.04242	6633
263.06363	6646
263.08481	6646
263.10602	6643
263.12723	6733
263.14844	6770
263.16962	6745
263.19083	6779
263.21204	6717
263.23322	6771
263.25443	6694
263.27563	6710
263.29681	6743
263.31802	6773
263.33923	6805
263.36041	6851
263.38162	6808
263.4028	6763
263.42401	6779
263.44522	6803
263.4664	6771
263.48761	6802
263.50879	6856
263.53	6937
263.55121	6961
263.57239	6943
263.5936	6874
263.61478	6998
263.63599	6970
263.65717	6946
263.67838	6989
263.69955	7069
263.72076	7046
263.74194	7051
263.76315	6983
263.78433	6996
263.80554	7061
263.82672	7094
263.84793	7066
263.86911	7121
263.89032	7197
263.9115	7231
263.93271	7203
263.95389	7219
263.9751	7218
263.99628	7207
264.01749	7204
264.03867	7253
264.05984	7292
264.08105	7299
264.10223	7269
264.12344	7236
264.14462	7247
264.1658	7269
264.18701	7301
264.20819	7361
264.22937	7345
264.25058	7301
264.27176	7312
264.29294	7352
264.31415	7354
264.33533	7365
264.35651	7382
264.37772	7357
264.3989	7376
264.42007	7348
264.44128	7330
264.46246	7344
264.48364	7338
264.50485	7410
264.52603	7351
264.54721	7438
264.56839	7508
264.5896	7482
264.61078	7457
264.63196	7456
264.65314	7420
264.67435	7414
264.69553	7337
264.71671	7347
264.73788	7340
264.75906	7312
264.78027	7305
264.80145	7369
264.82263	7404
264.84381	7400
264.86499	7418
264.88617	7378
264.90738	7374
264.92856	7469
264.94974	7458
264.97092	7514
264.9921	7635
265.01328	7560
265.03445	7570
265.05563	7589
265.07684	7652
265.09802	7658
265.1192	7602
265.14038	7586
265.16156	7659
265.18274	7701
265.20392	7630
265.2251	7593
265.24628	7584
265.26746	7576
265.28864	7578
265.30981	7687
265.33099	7793
265.35217	7810
265.37335	7769
265.39453	7757
265.41571	7758
265.43689	7763
265.45807	7824
265.47925	7853
265.50043	7953
265.52161	7953
265.54279	7956
265.56396	7949
265.58514	7947
265.60632	7929
265.6275	7956
265.64868	7938
265.66986	7991
265.69104	8001
265.71222	7951
265.73337	7949
265.75455	7944
265.77573	7909
265.79691	7936
265.81808	7881
265.83926	7954
265.86044	7899
265.88159	7904
265.90277	7889
265.92395	7970
265.94513	7952
265.96631	8018
265.98749	8047
266.00864	8058
266.02982	8063
266.05099	8005
266.07217	8061
266.09335	7989
266.1145	8001
266.13568	7977
266.15686	7973
266.17804	7992
266.19919	7928
266.22037	7855
266.24155	7894
266.26273	7962
266.28387	7943
266.30505	7921
266.32623	7892
266.34738	7934
266.36856	7943
266.38974	7964
266.41092	8072
266.43207	8114
266.45325	8165
266.47443	8130
266.49557	8058
266.51675	8134
266.5379	8087
266.55908	8112
266.58026	8138
266.60141	8141
266.62259	8181
266.64377	8094
266.66492	8079
266.6861	8040
266.70724	8105
266.72842	8068
266.7496	8202
266.77075	8291
266.79193	8300
266.81308	8220
266.83426	8181
266.85541	8210
266.87659	8206
266.89774	8207
266.91891	8263
266.94006	8266
266.96124	8321
266.98239	8346
267.00357	8276
267.02472	8317
267.0459	8284
267.06705	8313
267.08823	8336
267.10938	8289
267.13055	8267
267.1517	8294
267.17288	8309
267.19403	8323
267.21518	8317
267.23636	8329
267.25751	8397
267.27869	8379
267.29984	8415
267.32098	8403
267.34216	8435
267.36331	8456
267.38449	8509
267.40564	8555
267.42679	8573
267.44797	8594
267.46912	8617
267.49026	8633
267.51144	8645
267.53259	8622
267.55374	8592
267.57492	8593
267.59607	8571
267.61722	8651
267.6384	8657
267.65955	8716
267.68069	8779
267.70184	8742
267.72302	8730
267.74417	8724
267.76532	8735
267.78647	8729
267.80765	8783
267.8288	8823
267.84995	8814
267.87109	8826
267.89224	8833
267.91342	8871
267.93457	8938
267.95572	9005
267.97687	8975
267.99802	8991
268.0192	9028
268.04034	8980
268.06149	8994
268.08264	8969
268.10379	9009
268.12494	9088
268.14609	9054
268.16727	9105
268.18842	9094
268.20956	9143
268.23071	9137
268.25186	9111
268.27301	9134
268.29416	9105
268.31531	9097
268.33646	9080
268.3576	9141
268.37875	9130
268.3999	9093
268.42105	9038
268.4422	8992
268.46338	8995
268.48453	8991
268.50568	9079
268.52682	9125
268.54797	9104
268.56912	9038
268.59027	9069
268.61139	9133
268.63254	9147
268.65369	9117
268.67484	9210
268.69598	9227
268.71713	9171
268.73828	9204
268.75943	9203
268.78058	9230
268.80173	9218
268.82288	9212
268.84402	9084
268.86517	9154
268.88632	9207
268.90744	9266
268.92859	9201
268.94974	9241
268.97089	9229
268.99203	9170
269.01318	9096
269.03433	9102
269.05545	9079
269.0766	9131
269.09775	9208
269.1189	9195
269.14005	9190
269.16116	9146
269.18231	9146
269.20346	9159
269.22461	9159
269.24576	9195
269.26688	9213
269.28802	9308
269.30917	9267
269.33032	9295
269.35144	9318
269.37259	9313
269.39374	9353
269.41486	9347
269.436	9365
269.45715	9372
269.4783	9384
269.49942	9332
269.52057	9272
269.54172	9337
269.56284	9416
269.58398	9414
269.60513	9405
269.62625	9489
269.6474	9587
269.66855	9593
269.68967	9554
269.71082	9564
269.73193	9546
269.75308	9561
269.77423	9644
269.79535	9711
269.8165	9729
269.83762	9667
269.85876	9606
269.87988	9638
269.90103	9629
269.92218	9701
269.9433	9707
269.96445	9824
269.98557	9720
270.00671	9723
270.02783	9675
270.04898	9701
270.0701	9705
270.09125	9717
270.11237	9764
270.13351	9720
270.15463	9704
270.17578	9665
270.1969	9736
270.21802	9692
270.23917	9720
270.26028	9719
270.28143	9770
270.30255	9847
270.3237	9838
270.34482	9787
270.36594	9781
270.38708	9787
270.4082	9763
270.42935	9757
270.45047	9653
270.47159	9641
270.49274	9649
270.51385	9646
270.53497	9629
270.55612	9699
270.57724	9735
270.59836	9722
270.61951	9731
270.64063	9699
270.66174	9691
270.68289	9739
270.70401	9779
270.72513	9944
270.74625	9993
270.7674	9956
270.78851	9971
270.80963	10012
270.83078	10009
270.8519	9993
270.87302	9997
270.89413	9941
270.91525	9931
270.9364	9934
270.95752	9929
270.97864	9906
270.99976	9947
271.02087	9924
271.04202	9902
271.06314	10110
271.08426	10120
271.10538	10144
271.1265	10107
271.14761	10105
271.16876	10055
271.18988	10129
271.211	10195
271.23212	10295
271.25323	10362
271.27435	10342
271.29547	10346
271.31659	10385
271.33771	10289
271.35883	10254
271.37994	10222
271.40109	10307
271.42221	10329
271.44333	10325
271.46445	10270
271.48557	10330
271.50668	10341
271.5278	10334
271.54892	10344
271.57004	10229
271.59116	10201
271.61227	10224
271.63339	10202
271.65451	10196
271.67563	10286
271.69675	10333
271.71786	10394
271.73895	10462
271.76007	10445
271.78119	10416
271.80231	10448
271.82343	10399
271.84454	10336
271.86566	10384
271.88678	10377
271.9079	10386
271.92902	10365
271.95013	10296
271.97122	10246
271.99234	10287
272.01346	10365
272.03458	10303
272.05569	10287
272.07681	10282
272.0979	10218
272.11902	10256
272.14014	10336
272.16125	10419
272.18237	10501
272.20346	10492
272.22458	10437
272.2457	10459
272.26682	10420
272.28793	10381
272.30902	10395
272.33014	10426
272.35126	10481
272.37238	10430
272.39346	10444
272.41458	10353
272.4357	10335
272.45679	10346
272.47791	10390
272.49902	10532
272.52011	10513
272.54123	10528
272.56235	10488
272.58344	10402
272.60455	10479
272.62567	10553
272.64676	10603
272.66788	10705
272.689	10694
272.71008	10720
272.7312	10669
272.75229	10699
272.77341	10802
272.79453	10760
272.81561	10748
272.83673	10829
272.85782	10755
272.87894	10762
272.90002	10729
272.92114	10780
272.94226	10732
272.96335	10810
272.98447	10665
273.00555	10710
273.02667	10727
273.04776	10734
273.06888	10795
273.08997	10840
273.11108	10879
273.13217	10876
273.15329	10988
273.17438	10986
273.19547	10970
273.21658	11002
273.23767	11020
273.25879	11092
273.27988	11025
273.30099	10977
273.32208	11027
273.34317	11015
273.36429	10975
273.38538	10982
273.40649	11026
273.42758	11048
273.44867	11103
273.46979	10999
273.49088	10944
273.51196	10953
273.53308	10908
273.55417	10977
273.57526	10961
273.59637	10964
273.61746	10935
273.63855	10890
273.65967	10938
273.68076	11050
273.70184	11053
273.72293	11041
273.74405	11115
273.76514	11066
273.78622	11058
273.80731	11043
273.82843	11137
273.84952	11123
273.87061	11252
273.89169	11221
273.91281	11240
273.9339	11284
273.95499	11313
273.97607	11348
273.99716	11394
274.01825	11376
274.03937	11408
274.06046	11370
274.08154	11440
274.10263	11434
274.12372	11461
274.14481	11456
274.16589	11422
274.18701	11338
274.2081	11321
274.22919	11375
274.25027	11403
274.27136	11477
274.29245	11472
274.31354	11364
274.33463	11446
274.35571	11470
274.3768	11449
274.39789	11489
274.41898	11534
274.44006	11575
274.46115	11482
274.48224	11533
274.50333	11545
274.52441	11552
274.5455	11519
274.56659	11480
274.58768	11498
274.60876	11569
274.62985	11561
274.65094	11543
274.67203	11583
274.69312	11526
274.7142	11485
274.73529	11467
274.75638	11400
274.77747	11390
274.79855	11421
274.81961	11464
274.8407	11411
274.86179	11447
274.88287	11451
274.90396	11423
274.92505	11435
274.94614	11400
274.96722	11409
274.98828	11460
275.00937	11539
275.03046	11568
275.05154	11593
275.07263	11527
275.09369	11561
275.11478	11683
275.13586	11664
275.15695	11786
275.17804	11747
275.1991	11722
275.22018	11708
275.24127	11659
275.26236	11667
275.28342	11765
275.3045	11810
275.32559	11885
275.34665	11942
275.36774	12112
275.38882	12109
275.40991	12069
275.43097	12028
275.45206	11993
275.47314	11970
275.4942	11961
275.51529	11950
275.53638	12043
275.55743	12087
275.57852	12068
275.59958	12089
275.62067	12018
275.64175	12122
275.66281	12022
275.6839	12167
275.70496	12147
275.72604	12184
275.74713	12109
275.76819	12134
275.78928	12223
275.81033	12227
275.83142	12207
275.85248	12216
275.87357	12224
275.89462	12176
275.91571	12164
275.93677	12178
275.95786	12190
275.97891	12220
276	12267
276.02106	12296
276.04214	12369
276.0632	12386
276.08429	12452
276.10535	12490
276.12643	12538
276.14749	12508
276.16855	12480
276.18964	12470
276.21069	12444
276.23178	12427
276.25284	12423
276.2739	12484
276.29498	12564
276.31604	12577
276.33713	12450
276.35818	12489
276.37924	12541
276.40033	12547
276.42139	12633
276.44244	12823
276.46353	12912
276.48459	12911
276.50565	12924
276.5267	12879
276.54779	12933
276.56885	12887
276.5899	12890
276.61099	12931
276.63205	12912
276.65311	12937
276.67416	12900
276.69525	12819
276.71631	12751
276.73737	12822
276.75842	12821
276.77948	13041
276.80057	13099
276.82162	13134
276.84268	13067
276.86374	13019
276.8848	13093
276.90588	13109
276.92694	13242
276.948	13316
276.96906	13414
276.99011	13458
277.01117	13361
277.03223	13392
277.05328	13452
277.07437	13458
277.09543	13448
277.11649	13415
277.13754	13411
277.1586	13432
277.17966	13434
277.20071	13401
277.22177	13412
277.24283	13415
277.26389	13411
277.28494	13392
277.306	13442
277.32706	13337
277.34811	13364
277.36917	13352
277.39023	13441
277.41129	13460
277.43234	13569
277.4534	13676
277.47446	13709
277.49551	13596
277.51657	13652
277.53763	13567
277.55869	13626
277.57974	13535
277.6008	13518
277.62186	13407
277.64288	13421
277.66394	13347
277.685	13208
277.70605	13268
277.72711	13343
277.74817	13378
277.76923	13350
277.79028	13393
277.81131	13418
277.83237	13405
277.85342	13402
277.87448	13461
277.89554	13595
277.91656	13704
277.93762	13676
277.95868	13729
277.97974	13703
278.00079	13729
278.02182	13739
278.04288	13803
278.06393	13784
278.08499	13758
278.10602	13744
278.12708	13661
278.14813	13570
278.16919	13655
278.19022	13709
278.21127	13891
278.23233	14008
278.25336	14084
278.27441	14018
278.29547	13920
278.3165	13950
278.33755	14009
278.35861	14048
278.37964	14165
278.4007	14306
278.42172	14330
278.44278	14253
278.46384	14206
278.48486	14289
278.50592	14350
278.52695	14312
278.548	14418
278.56906	14413
278.59009	14344
278.61115	14361
278.63217	14323
278.65323	14426
278.67426	14411
278.69531	14328
278.71634	14266
278.7374	14288
278.75842	14315
278.77948	14220
278.80051	14396
278.82156	14483
278.84259	14483
