Date and Time:                Fri Sep 9 18:55:11.000 2022
Software Version:             4.31.30023.0
Temperature (C):              -40
Model:                        DU940P_BU2
Data Type:                    Counts
Acquisition Mode:             Single Scan
Trigger Mode:                 Internal
Exposure Time (secs):         0.2
Readout Mode:                 Full Vertical Binning
Horizontal binning:           1
Extended Dynamic Range:       off
Horizontally flipped:         false
Vertical Shift Speed (usecs): 14.51
Pixel Readout Rate (MHz):     3
Baseline Clamp:               ON
Clock Amplitude:              Normal
Output Amplifier:             High Capacity
Serial Number:                23634
Pre-Amplifier Gain:           1.000000
Spurious Noise Filter Mode:   No Filter
Photon counted:               false
Data Averaging Filter Mode:   No Filter
SR500i:
Serial Number:                
Wavelength (nm):              276
Grating Groove Density (l/mm):1199.47
Grating Blaze:                500
Output Flipper Port:          Direct
Accessory Output Port 1:      Off
Accessory Output Port 2:      Off
Accessory Output Port 3:      Off
Accessory Input Port:         On



254.33386	3810
254.35513	3642
254.37642	3644
254.39769	3666
254.41898	3702
254.44025	3718
254.46153	3720
254.4828	3716
254.50407	3732
254.52536	3713
254.54663	3699
254.56792	3686
254.58919	3679
254.61046	3740
254.63174	3724
254.65302	3741
254.67429	3738
254.69557	3773
254.71684	3762
254.73811	3766
254.75938	3753
254.78067	3764
254.80194	3772
254.82321	3771
254.84448	3735
254.86575	3760
254.88704	3743
254.90831	3712
254.92958	3755
254.95085	3761
254.97212	3819
254.99339	3804
255.01468	3836
255.03595	3791
255.05722	3769
255.07849	3793
255.09976	3830
255.12103	3846
255.1423	3906
255.16357	3882
255.18484	3903
255.20612	3881
255.22739	3903
255.24866	3904
255.26993	3929
255.2912	3914
255.31247	3951
255.33374	3942
255.35501	3916
255.37628	3910
255.39755	3940
255.41882	3933
255.44008	3918
255.46135	3953
255.48262	3930
255.50389	3923
255.52516	3921
255.54643	3952
255.56769	3953
255.58896	3995
255.61023	4000
255.6315	4030
255.65277	4033
255.67403	4020
255.6953	4007
255.71657	4017
255.73784	4031
255.75909	4021
255.78036	4016
255.80164	4015
255.82289	4046
255.84416	4052
255.86543	3984
255.88669	3979
255.90796	4011
255.92921	4005
255.95049	3996
255.97176	4019
255.99301	3984
256.01428	4022
256.03555	3996
256.05679	4014
256.07806	4035
256.09933	4052
256.12061	4072
256.14185	4119
256.16312	4075
256.18439	4072
256.20566	4051
256.2269	4061
256.24817	4082
256.26944	4073
256.29068	4089
256.31195	4114
256.33322	4081
256.35449	4076
256.37573	4072
256.397	4111
256.41827	4143
256.43951	4111
256.46078	4183
256.48206	4142
256.5033	4163
256.52457	4154
256.54581	4199
256.56708	4188
256.58835	4176
256.60959	4236
256.63086	4236
256.65213	4257
256.67337	4307
256.69464	4291
256.71588	4299
256.73715	4274
256.75839	4299
256.77966	4295
256.80093	4310
256.82217	4321
256.84344	4306
256.86469	4347
256.88596	4326
256.9072	4304
256.92847	4321
256.94971	4330
256.97098	4318
256.99222	4341
257.01349	4329
257.03473	4327
257.056	4352
257.07724	4365
257.09851	4361
257.11975	4392
257.14102	4407
257.16226	4438
257.18353	4429
257.20477	4411
257.22601	4409
257.24728	4442
257.26852	4427
257.28979	4439
257.31104	4443
257.33231	4424
257.35355	4464
257.37479	4459
257.39606	4480
257.4173	4478
257.43857	4507
257.45981	4489
257.48105	4462
257.50232	4451
257.52356	4470
257.5448	4484
257.56607	4518
257.58731	4559
257.60855	4573
257.62982	4544
257.65106	4548
257.6723	4556
257.69357	4542
257.71481	4525
257.73605	4540
257.75732	4615
257.77856	4627
257.7998	4592
257.82104	4592
257.84232	4668
257.86356	4674
257.8848	4654
257.90604	4691
257.92731	4666
257.94855	4683
257.96979	4662
257.99103	4654
258.01227	4684
258.03354	4703
258.05478	4727
258.07602	4731
258.09726	4744
258.1185	4808
258.13977	4859
258.16101	4857
258.18225	4814
258.20349	4844
258.22473	4843
258.24597	4860
258.26724	4825
258.28848	4903
258.30972	4871
258.33096	4855
258.3522	4850
258.37344	4807
258.39468	4875
258.41592	4859
258.43716	4910
258.45844	4946
258.47968	4915
258.50092	4879
258.52216	4927
258.5434	4953
258.56464	4917
258.58588	4984
258.60712	4971
258.62836	5011
258.6496	5005
258.67084	4995
258.69208	4965
258.71332	4968
258.73456	5014
258.7558	4996
258.77704	5018
258.79828	5017
258.81952	5082
258.84076	5076
258.862	5066
258.88324	5044
258.90448	4998
258.92572	4980
258.94696	4990
258.9682	4956
258.98944	4982
259.01068	4982
259.03192	4986
259.05316	4998
259.07437	5027
259.09561	4997
259.11685	4997
259.13809	5044
259.15933	5029
259.18057	5044
259.20181	5120
259.22305	5134
259.24426	5160
259.2655	5148
259.28674	5191
259.30798	5185
259.32922	5204
259.35046	5212
259.37167	5234
259.39291	5218
259.41415	5219
259.43539	5207
259.45663	5196
259.47784	5211
259.49908	5208
259.52032	5202
259.54156	5264
259.56281	5265
259.58401	5319
259.60526	5347
259.6265	5302
259.64774	5339
259.66895	5375
259.69019	5358
259.71143	5379
259.73264	5403
259.75388	5441
259.77512	5424
259.79636	5411
259.81757	5421
259.83881	5404
259.86005	5433
259.88126	5464
259.9025	5478
259.92374	5445
259.94495	5455
259.96619	5485
259.98743	5486
260.00864	5501
260.02988	5475
260.05109	5498
260.07233	5484
260.09357	5464
260.11478	5478
260.13602	5473
260.15726	5472
260.17847	5505
260.19971	5577
260.22092	5559
260.24216	5669
260.26337	5656
260.28461	5594
260.30582	5608
260.32706	5578
260.3483	5594
260.36951	5616
260.39075	5608
260.41196	5615
260.4332	5624
260.45441	5657
260.47565	5617
260.49686	5628
260.5181	5677
260.53931	5656
260.56055	5592
260.58176	5617
260.60297	5637
260.62421	5642
260.64542	5601
260.66666	5661
260.68787	5661
260.70911	5641
260.73032	5636
260.75156	5676
260.77277	5678
260.79398	5701
260.81522	5710
260.83643	5706
260.85767	5727
260.87888	5751
260.90009	5800
260.92133	5820
260.94254	5786
260.96375	5805
260.98499	5811
261.0062	5811
261.0274	5823
261.04865	5817
261.06985	5853
261.09106	5884
261.1123	5876
261.13351	5893
261.15472	5912
261.17596	5933
261.19717	5938
261.21838	5912
261.23959	5921
261.26083	5889
261.28204	5874
261.30325	5897
261.32446	5886
261.3457	5893
261.36691	5912
261.38812	5918
261.40933	5928
261.43054	5967
261.45178	5973
261.47299	5957
261.4942	6027
261.51541	6029
261.53662	6057
261.55786	6038
261.57907	6071
261.60028	6057
261.62149	6110
261.6427	6074
261.66391	6028
261.68515	6100
261.70636	6049
261.72757	6060
261.74878	6039
261.76999	6060
261.7912	6045
261.81241	6014
261.83362	6036
261.85483	6094
261.87607	6145
261.89728	6186
261.91849	6151
261.9397	6125
261.96091	6164
261.98212	6153
262.00333	6123
262.02454	6158
262.04575	6152
262.06696	6149
262.08817	6193
262.10938	6163
262.13058	6135
262.15179	6154
262.173	6245
262.19421	6236
262.21542	6221
262.23663	6285
262.25784	6273
262.27905	6255
262.30026	6241
262.32147	6235
262.34268	6270
262.36389	6264
262.3851	6371
262.40628	6312
262.42749	6313
262.4487	6359
262.46991	6400
262.49112	6422
262.51233	6413
262.53354	6353
262.55475	6414
262.57596	6349
262.59714	6379
262.61835	6441
262.63956	6438
262.66077	6397
262.68198	6393
262.70319	6388
262.72437	6392
262.74557	6413
262.76678	6492
262.78799	6481
262.8092	6499
262.83038	6457
262.85159	6485
262.8728	6564
262.89401	6592
262.91522	6544
262.9364	6567
262.95761	6596
262.97882	6543
263.00003	6559
263.02121	6535
263.04242	6593
263.06363	6556
263.08481	6528
263.10602	6590
263.12723	6664
263.14844	6647
263.16962	6688
263.19083	6697
263.21204	6697
263.23322	6696
263.25443	6638
263.27563	6567
263.29681	6674
263.31802	6690
263.33923	6735
263.36041	6730
263.38162	6720
263.4028	6696
263.42401	6680
263.44522	6650
263.4664	6718
263.48761	6733
263.50879	6787
263.53	6803
263.55121	6853
263.57239	6833
263.5936	6818
263.61478	6847
263.63599	6876
263.65717	6874
263.67838	6932
263.69955	6991
263.72076	6964
263.74194	6930
263.76315	6915
263.78433	6941
263.80554	6979
263.82672	6957
263.84793	6992
263.86911	7012
263.89032	7102
263.9115	7133
263.93271	7108
263.95389	7104
263.9751	7079
263.99628	7159
264.01749	7160
264.03867	7170
264.05984	7196
264.08105	7203
264.10223	7157
264.12344	7174
264.14462	7130
264.1658	7166
264.18701	7185
264.20819	7260
264.22937	7256
264.25058	7238
264.27176	7215
264.29294	7232
264.31415	7270
264.33533	7275
264.35651	7261
264.37772	7263
264.3989	7286
264.42007	7265
264.44128	7210
264.46246	7210
264.48364	7284
264.50485	7294
264.52603	7279
264.54721	7343
264.56839	7398
264.5896	7380
264.61078	7415
264.63196	7373
264.65314	7359
264.67435	7334
264.69553	7298
264.71671	7278
264.73788	7285
264.75906	7215
264.78027	7222
264.80145	7300
264.82263	7305
264.84381	7303
264.86499	7282
264.88617	7320
264.90738	7283
264.92856	7332
264.94974	7358
264.97092	7464
264.9921	7518
265.01328	7551
265.03445	7504
265.05563	7522
265.07684	7531
265.09802	7527
265.1192	7520
265.14038	7558
265.16156	7600
265.18274	7567
265.20392	7550
265.2251	7529
265.24628	7493
265.26746	7475
265.28864	7473
265.30981	7561
265.33099	7667
265.35217	7686
265.37335	7696
265.39453	7627
265.41571	7615
265.43689	7616
265.45807	7751
265.47925	7750
265.50043	7826
265.52161	7856
265.54279	7822
265.56396	7870
265.58514	7836
265.60632	7811
265.6275	7832
265.64868	7881
265.66986	7868
265.69104	7879
265.71222	7877
265.73337	7824
265.75455	7813
265.77573	7829
265.79691	7796
265.81808	7786
265.83926	7818
265.86044	7801
265.88159	7823
265.90277	7815
265.92395	7867
265.94513	7880
265.96631	7890
265.98749	7902
266.00864	7934
266.02982	7947
266.05099	7950
266.07217	7951
266.09335	7915
266.1145	7886
266.13568	7846
266.15686	7912
266.17804	7900
266.19919	7822
266.22037	7778
266.24155	7838
266.26273	7803
266.28387	7820
266.30505	7836
266.32623	7797
266.34738	7802
266.36856	7817
266.38974	7908
266.41092	7948
266.43207	8063
266.45325	8008
266.47443	8010
266.49557	7991
266.51675	8034
266.5379	7976
266.55908	8042
266.58026	8049
266.60141	8012
266.62259	8045
266.64377	8021
266.66492	7960
266.6861	7966
266.70724	7998
266.72842	7997
266.7496	8114
266.77075	8188
266.79193	8174
266.81308	8107
266.83426	8069
266.85541	8078
266.87659	8117
266.89774	8117
266.91891	8155
266.94006	8210
266.96124	8218
266.98239	8180
267.00357	8202
267.02472	8187
267.0459	8207
267.06705	8238
267.08823	8161
267.10938	8152
267.13055	8226
267.1517	8224
267.17288	8173
267.19403	8204
267.21518	8202
267.23636	8212
267.25751	8251
267.27869	8321
267.29984	8282
267.32098	8280
267.34216	8323
267.36331	8387
267.38449	8386
267.40564	8410
267.42679	8477
267.44797	8464
267.46912	8473
267.49026	8502
267.51144	8538
267.53259	8488
267.55374	8503
267.57492	8414
267.59607	8500
267.61722	8464
267.6384	8553
267.65955	8619
267.68069	8659
267.70184	8642
267.72302	8626
267.74417	8614
267.76532	8634
267.78647	8629
267.80765	8665
267.8288	8699
267.84995	8721
267.87109	8707
267.89224	8726
267.91342	8703
267.93457	8818
267.95572	8868
267.97687	8911
267.99802	8860
268.0192	8850
268.04034	8854
268.06149	8854
268.08264	8940
268.10379	8933
268.12494	8957
268.14609	8967
268.16727	8975
268.18842	8986
268.20956	9005
268.23071	8976
268.25186	9014
268.27301	8999
268.29416	8985
268.31531	8984
268.33646	8951
268.3576	8988
268.37875	8997
268.3999	9008
268.42105	8841
268.4422	8885
268.46338	8867
268.48453	8885
268.50568	8963
268.52682	9001
268.54797	8997
268.56912	8945
268.59027	8928
268.61139	9014
268.63254	9001
268.65369	8989
268.67484	9047
268.69598	9058
268.71713	9046
268.73828	9037
268.75943	9096
268.78058	9103
268.80173	9086
268.82288	9071
268.84402	9009
268.86517	9046
268.88632	9063
268.90744	9137
268.92859	9099
268.94974	9124
268.97089	9068
268.99203	9063
269.01318	8967
269.03433	8976
269.05545	8987
269.0766	9034
269.09775	9081
269.1189	9044
269.14005	9060
269.16116	9018
269.18231	9023
269.20346	9023
269.22461	9002
269.24576	9049
269.26688	9106
269.28802	9173
269.30917	9159
269.33032	9133
269.35144	9143
269.37259	9179
269.39374	9184
269.41486	9238
269.436	9258
269.45715	9245
269.4783	9262
269.49942	9190
269.52057	9199
269.54172	9187
269.56284	9282
269.58398	9278
269.60513	9240
269.62625	9418
269.6474	9473
269.66855	9425
269.68967	9419
269.71082	9474
269.73193	9473
269.75308	9447
269.77423	9476
269.79535	9566
269.8165	9573
269.83762	9589
269.85876	9495
269.87988	9504
269.90103	9515
269.92218	9562
269.9433	9585
269.96445	9626
269.98557	9575
270.00671	9548
270.02783	9506
270.04898	9595
270.0701	9535
270.09125	9561
270.11237	9594
270.13351	9648
270.15463	9561
270.17578	9572
270.1969	9577
270.21802	9565
270.23917	9577
270.26028	9595
270.28143	9633
270.30255	9670
270.3237	9687
270.34482	9685
270.36594	9636
270.38708	9644
270.4082	9640
270.42935	9575
270.45047	9566
270.47159	9487
270.49274	9545
270.51385	9487
270.53497	9554
270.55612	9611
270.57724	9625
270.59836	9550
270.61951	9572
270.64063	9602
270.66174	9591
270.68289	9597
270.70401	9689
270.72513	9768
270.74625	9826
270.7674	9811
270.78851	9771
270.80963	9893
270.83078	9947
270.8519	9879
270.87302	9890
270.89413	9860
270.91525	9843
270.9364	9848
270.95752	9812
270.97864	9795
270.99976	9782
271.02087	9842
271.04202	9775
271.06314	9936
271.08426	10042
271.10538	9985
271.1265	9971
271.14761	9925
271.16876	9957
271.18988	10021
271.211	10067
271.23212	10133
271.25323	10132
271.27435	10212
271.29547	10232
271.31659	10166
271.33771	10153
271.35883	10122
271.37994	10142
271.40109	10202
271.42221	10177
271.44333	10161
271.46445	10131
271.48557	10188
271.50668	10181
271.5278	10199
271.54892	10229
271.57004	10103
271.59116	10068
271.61227	10068
271.63339	10092
271.65451	10084
271.67563	10083
271.69675	10217
271.71786	10250
271.73895	10272
271.76007	10310
271.78119	10290
271.80231	10236
271.82343	10254
271.84454	10250
271.86566	10245
271.88678	10220
271.9079	10238
271.92902	10247
271.95013	10157
271.97122	10131
271.99234	10190
272.01346	10202
272.03458	10174
272.05569	10145
272.07681	10085
272.0979	10148
272.11902	10119
272.14014	10191
272.16125	10247
272.18237	10348
272.20346	10297
272.22458	10343
272.2457	10321
272.26682	10286
272.28793	10286
272.30902	10320
272.33014	10302
272.35126	10294
272.37238	10278
272.39346	10244
272.41458	10195
272.4357	10158
272.45679	10197
272.47791	10280
272.49902	10391
272.52011	10407
272.54123	10405
272.56235	10339
272.58344	10294
272.60455	10358
272.62567	10430
272.64676	10451
272.66788	10543
272.689	10621
272.71008	10612
272.7312	10570
272.75229	10604
272.77341	10574
272.79453	10664
272.81561	10637
272.83673	10665
272.85782	10613
272.87894	10582
272.90002	10582
272.92114	10628
272.94226	10648
272.96335	10578
272.98447	10595
273.00555	10592
273.02667	10547
273.04776	10527
273.06888	10677
273.08997	10707
273.11108	10697
273.13217	10670
273.15329	10843
273.17438	10841
273.19547	10874
273.21658	10862
273.23767	10940
273.25879	10910
273.27988	10918
273.30099	10864
273.32208	10785
273.34317	10825
273.36429	10871
273.38538	10832
273.40649	10889
273.42758	10919
273.44867	10880
273.46979	10821
273.49088	10822
273.51196	10775
273.53308	10758
273.55417	10866
273.57526	10834
273.59637	10856
273.61746	10804
273.63855	10773
273.65967	10798
273.68076	10867
273.70184	10912
273.72293	10900
273.74405	10971
273.76514	10983
273.78622	10937
273.80731	10948
273.82843	10946
273.84952	11016
273.87061	11073
273.89169	11104
273.91281	11078
273.9339	11134
273.95499	11179
273.97607	11223
273.99716	11265
274.01825	11292
274.03937	11217
274.06046	11248
274.08154	11273
274.10263	11299
274.12372	11251
274.14481	11268
274.16589	11236
274.18701	11137
274.2081	11213
274.22919	11155
274.25027	11254
274.27136	11333
274.29245	11270
274.31354	11226
274.33463	11271
274.35571	11291
274.3768	11332
274.39789	11313
274.41898	11362
274.44006	11389
274.46115	11445
274.48224	11335
274.50333	11363
274.52441	11417
274.5455	11341
274.56659	11307
274.58768	11318
274.60876	11409
274.62985	11388
274.65094	11417
274.67203	11392
274.69312	11339
274.7142	11340
274.73529	11271
274.75638	11260
274.77747	11260
274.79855	11266
274.81961	11248
274.8407	11280
274.86179	11307
274.88287	11283
274.90396	11326
274.92505	11319
274.94614	11258
274.96722	11281
274.98828	11284
275.00937	11372
275.03046	11417
275.05154	11383
275.07263	11383
275.09369	11325
275.11478	11450
275.13586	11523
275.15695	11607
275.17804	11552
275.1991	11563
275.22018	11540
275.24127	11475
275.26236	11492
275.28342	11585
275.3045	11657
275.32559	11679
275.34665	11753
275.36774	11899
275.38882	12011
275.40991	11873
275.43097	11868
275.45206	11828
275.47314	11771
275.4942	11767
275.51529	11793
275.53638	11872
275.55743	11951
275.57852	11897
275.59958	11870
275.62067	11941
275.64175	11923
275.66281	11956
275.6839	11945
275.70496	11981
275.72604	11979
275.74713	11923
275.76819	12008
275.78928	12003
275.81033	12054
275.83142	12033
275.85248	12031
275.87357	12117
275.89462	12031
275.91571	12011
275.93677	11933
275.95786	12050
275.97891	12011
276	12088
276.02106	12148
276.04214	12147
276.0632	12210
276.08429	12285
276.10535	12374
276.12643	12374
276.14749	12381
276.16855	12271
276.18964	12313
276.21069	12279
276.23178	12206
276.25284	12286
276.2739	12296
276.29498	12351
276.31604	12373
276.33713	12389
276.35818	12315
276.37924	12335
276.40033	12360
276.42139	12510
276.44244	12608
276.46353	12707
276.48459	12764
276.50565	12610
276.5267	12666
276.54779	12713
276.56885	12780
276.5899	12731
276.61099	12762
276.63205	12721
276.65311	12786
276.67416	12699
276.69525	12632
276.71631	12638
276.73737	12523
276.75842	12653
276.77948	12819
276.80057	12852
276.82162	12888
276.84268	12906
276.86374	12830
276.8848	12865
276.90588	12969
276.92694	13041
276.948	13156
276.96906	13223
276.99011	13220
277.01117	13223
277.03223	13215
277.05328	13228
277.07437	13249
277.09543	13262
277.11649	13276
277.13754	13316
277.1586	13277
277.17966	13187
277.20071	13178
277.22177	13187
277.24283	13192
277.26389	13198
277.28494	13241
277.306	13228
277.32706	13194
277.34811	13170
277.36917	13173
277.39023	13247
277.41129	13314
277.43234	13414
277.4534	13511
277.47446	13490
277.49551	13424
277.51657	13420
277.53763	13452
277.55869	13371
277.57974	13350
277.6008	13257
277.62186	13215
277.64288	13206
277.66394	13113
277.685	13052
277.70605	13066
277.72711	13167
277.74817	13149
277.76923	13208
277.79028	13234
277.81131	13226
277.83237	13178
277.85342	13243
277.87448	13301
277.89554	13413
277.91656	13505
277.93762	13502
277.95868	13493
277.97974	13532
278.00079	13613
278.02182	13519
278.04288	13573
278.06393	13601
278.08499	13550
278.10602	13482
278.12708	13448
278.14813	13482
278.16919	13434
278.19022	13497
278.21127	13687
278.23233	13744
278.25336	13851
278.27441	13737
278.29547	13756
278.3165	13724
278.33755	13834
278.35861	13916
278.37964	13956
278.4007	14099
278.42172	14120
278.44278	14147
278.46384	14117
278.48486	14104
278.50592	14071
278.52695	14167
278.548	14170
278.56906	14223
278.59009	14147
278.61115	14154
278.63217	14185
278.65323	14249
278.67426	14178
278.69531	14111
278.71634	14088
278.7374	14058
278.75842	14090
278.77948	14040
278.80051	14206
278.82156	14349
278.84259	14280
