Date and Time:                Thu Oct 27 15:19:38.000 2022
Software Version:             4.31.30023.0
Temperature (C):              -40
Model:                        DU940P_BU2
Data Type:                    Counts
Acquisition Mode:             Single Scan
Trigger Mode:                 Internal
Exposure Time (secs):         0.25
Readout Mode:                 Full Vertical Binning
Horizontal binning:           1
Extended Dynamic Range:       off
Horizontally flipped:         false
Vertical Shift Speed (usecs): 14.51
Pixel Readout Rate (MHz):     3
Baseline Clamp:               ON
Clock Amplitude:              Normal
Output Amplifier:             High Capacity
Serial Number:                23634
Pre-Amplifier Gain:           1.000000
Spurious Noise Filter Mode:   No Filter
Photon counted:               false
Data Averaging Filter Mode:   No Filter
SR500i:
Serial Number:                
Wavelength (nm):              283.2
Grating Groove Density (l/mm):1199.47
Grating Blaze:                500
Output Flipper Port:          Direct
Accessory Output Port 1:      Off
Accessory Output Port 2:      Off
Accessory Output Port 3:      Off
Accessory Input Port:         On



261.5708	5731
261.59204	5462
261.61328	5466
261.63452	5421
261.65576	5439
261.677	5489
261.69827	5482
261.71951	5482
261.74075	5491
261.76199	5453
261.78323	5475
261.80447	5413
261.82571	5381
261.84695	5408
261.86819	5405
261.88943	5466
261.91068	5464
261.93192	5450
261.95316	5489
261.9744	5457
261.99564	5416
262.01688	5488
262.03812	5476
262.05936	5446
262.0806	5495
262.10184	5442
262.12308	5494
262.14432	5487
262.16556	5508
262.1868	5520
262.20801	5498
262.22925	5555
262.25049	5589
262.27173	5558
262.29297	5558
262.31421	5604
262.33545	5580
262.35669	5608
262.37793	5625
262.39917	5631
262.42038	5606
262.44162	5590
262.46286	5557
262.4841	5529
262.50534	5586
262.52658	5657
262.54782	5629
262.56903	5673
262.59027	5648
262.61151	5645
262.63275	5648
262.65399	5640
262.6752	5650
262.69644	5705
262.71768	5703
262.73892	5722
262.76016	5706
262.78137	5714
262.80261	5726
262.82385	5755
262.84509	5743
262.8663	5740
262.88754	5764
262.90878	5741
262.93002	5759
262.95123	5727
262.97247	5749
262.99371	5752
263.01492	5684
263.03616	5634
263.0574	5659
263.07861	5667
263.09985	5642
263.12109	5678
263.1423	5664
263.16354	5649
263.18478	5683
263.20599	5657
263.22723	5682
263.24847	5656
263.26968	5693
263.29092	5711
263.31216	5717
263.33337	5777
263.35461	5776
263.37582	5813
263.39706	5798
263.4183	5799
263.43951	5755
263.46075	5802
263.48196	5786
263.5032	5812
263.52441	5768
263.54565	5770
263.56686	5735
263.5881	5786
263.60934	5775
263.63055	5800
263.65179	5843
263.673	5855
263.69424	5871
263.71545	5848
263.73669	5851
263.7579	5838
263.77914	5910
263.80035	5901
263.82159	5926
263.8428	5984
263.86401	5907
263.88525	5973
263.90646	5945
263.9277	5920
263.94891	5908
263.97015	5940
263.99136	5984
264.0126	5985
264.03381	5958
264.05502	5954
264.07626	6006
264.09747	5996
264.11868	6015
264.13992	5973
264.16113	6023
264.18237	5963
264.20358	5971
264.22479	5952
264.24603	5945
264.26724	5941
264.28845	5970
264.30969	6012
264.3309	5991
264.35211	6048
264.37335	6023
264.39456	6031
264.41577	6008
264.43701	6003
264.45822	6021
264.47943	6002
264.50064	6003
264.52188	5988
264.54309	5997
264.5643	5956
264.58551	6014
264.60675	6018
264.62796	6018
264.64917	6049
264.67038	6065
264.69162	6070
264.71283	6095
264.73404	6095
264.75525	6136
264.77646	6190
264.7977	6217
264.81891	6221
264.84012	6237
264.86133	6237
264.88254	6207
264.90375	6166
264.92499	6192
264.9462	6186
264.96741	6219
264.98862	6184
265.00983	6236
265.03104	6218
265.05225	6248
265.07349	6283
265.0947	6293
265.11591	6381
265.13712	6334
265.15833	6346
265.17953	6335
265.20074	6317
265.22195	6346
265.24316	6420
265.26437	6447
265.28558	6516
265.30679	6525
265.328	6543
265.34921	6530
265.37042	6496
265.39163	6440
265.41284	6531
265.43405	6518
265.45526	6511
265.47647	6491
265.49768	6518
265.51889	6504
265.5401	6505
265.56131	6487
265.58252	6445
265.60373	6402
265.62494	6426
265.64615	6473
265.66736	6505
265.68857	6502
265.70978	6511
265.73099	6574
265.7522	6608
265.77341	6647
265.79462	6635
265.8158	6667
265.83701	6664
265.85822	6665
265.87943	6677
265.90063	6665
265.92184	6664
265.94305	6693
265.96426	6648
265.98544	6630
266.00665	6670
266.02786	6665
266.04907	6645
266.07028	6703
266.09149	6709
266.11267	6734
266.13388	6670
266.15509	6688
266.1763	6706
266.19751	6712
266.21869	6733
266.2399	6780
266.26111	6800
266.28232	6822
266.3035	6807
266.32471	6730
266.34592	6747
266.36713	6758
266.38831	6780
266.40952	6813
266.43073	6770
266.4519	6741
266.47311	6749
266.49432	6765
266.5155	6848
266.53671	6902
266.55792	6919
266.57913	6883
266.60031	6911
266.62152	6946
266.6427	6886
266.66391	6973
266.68512	6995
266.7063	7052
266.72751	7088
266.74872	7076
266.7699	7060
266.79111	7069
266.81229	7061
266.8335	7154
266.85471	7146
266.87589	7160
266.89709	7108
266.91827	7099
266.93948	7106
266.96066	7121
266.98187	7148
267.00308	7121
267.02426	7002
267.04547	7020
267.06665	7035
267.08786	7085
267.10904	7138
267.13025	7209
267.15143	7105
267.17264	7148
267.19382	7252
267.21503	7259
267.23621	7197
267.25742	7209
267.27859	7207
267.29977	7212
267.32098	7199
267.34216	7202
267.36337	7244
267.38455	7233
267.40576	7199
267.42694	7170
267.44812	7213
267.46933	7243
267.49051	7157
267.51172	7157
267.5329	7065
267.55408	7108
267.57529	7093
267.59647	7111
267.61768	7105
267.63885	7163
267.66003	7140
267.68124	7144
267.70242	7172
267.7236	7217
267.74481	7185
267.76599	7209
267.78717	7171
267.80835	7164
267.82956	7205
267.85074	7180
267.87192	7226
267.89313	7217
267.91431	7240
267.93549	7244
267.95667	7214
267.97787	7298
267.99905	7374
268.02023	7341
268.04141	7328
268.06262	7235
268.0838	7308
268.10498	7267
268.12616	7320
268.14734	7293
268.16855	7338
268.18973	7334
268.21091	7353
268.23209	7321
268.25327	7374
268.27448	7376
268.29565	7389
268.31683	7387
268.33801	7410
268.35919	7386
268.38037	7395
268.40155	7413
268.42273	7458
268.44394	7458
268.46512	7466
268.4863	7502
268.50748	7476
268.52866	7409
268.54984	7458
268.57101	7470
268.59219	7474
268.61337	7531
268.63455	7506
268.65573	7577
268.67691	7555
268.69809	7608
268.71927	7636
268.74045	7653
268.76163	7692
268.78281	7642
268.80399	7631
268.82516	7619
268.84634	7630
268.86752	7643
268.8887	7654
268.90988	7736
268.93106	7724
268.95224	7640
268.97342	7651
268.9946	7671
269.01578	7672
269.03696	7689
269.05814	7753
269.07932	7794
269.10049	7882
269.12167	7832
269.14285	7850
269.164	7862
269.18518	7894
269.20636	7912
269.22754	7910
269.24872	7946
269.2699	7951
269.29108	7872
269.31226	7859
269.3334	7835
269.35458	7812
269.37576	7864
269.39694	7849
269.41812	7991
269.43927	7993
269.46045	7980
269.48163	7912
269.50281	7879
269.52399	7921
269.54514	7936
269.56631	7942
269.58749	8005
269.60867	8056
269.62982	8013
269.651	8001
269.67218	7975
269.69336	7975
269.71451	7974
269.73569	8027
269.75687	8075
269.77805	8037
269.79919	7986
269.82037	7969
269.84155	8002
269.8627	7953
269.88388	7939
269.90506	7969
269.92621	7966
269.94739	7912
269.96857	7940
269.98972	7973
270.01089	7968
270.03204	7987
270.05322	7975
270.0744	8041
270.09555	8122
270.11673	8058
270.13788	8085
270.15906	8088
270.18024	8128
270.20139	8002
270.22256	8010
270.24371	8032
270.26489	8027
270.28604	8000
270.30722	7980
270.32837	8018
270.34955	8075
270.37073	8059
270.39188	8080
270.41306	8056
270.4342	8029
270.45538	8030
270.47653	8040
270.49771	8138
270.51886	8241
270.54001	8286
270.56119	8284
270.58234	8246
270.60352	8267
270.62466	8226
270.64584	8206
270.66699	8201
270.68817	8212
270.70932	8217
270.73047	8242
270.75165	8274
270.7728	8189
270.79398	8220
270.81512	8242
270.83627	8294
270.85745	8338
270.8786	8386
270.89975	8372
270.92093	8373
270.94208	8335
270.96323	8357
270.98441	8378
271.00555	8458
271.0267	8542
271.04788	8584
271.06903	8582
271.09018	8622
271.11136	8599
271.13251	8598
271.15366	8552
271.1748	8572
271.19598	8605
271.21713	8548
271.23828	8544
271.25943	8514
271.28061	8538
271.30176	8511
271.32291	8527
271.34406	8469
271.36523	8477
271.38638	8469
271.40753	8484
271.42868	8576
271.44983	8476
271.47101	8516
271.49216	8543
271.51331	8657
271.53445	8718
271.5556	8683
271.57675	8672
271.5979	8714
271.61908	8700
271.64023	8706
271.66138	8670
271.68253	8693
271.70367	8703
271.72482	8668
271.74597	8660
271.76712	8685
271.78827	8686
271.80942	8706
271.8306	8711
271.85175	8712
271.87289	8737
271.89404	8655
271.91519	8652
271.93634	8563
271.95749	8690
271.97864	8668
271.99979	8734
272.02094	8725
272.04208	8789
272.06323	8735
272.08438	8703
272.10553	8733
272.12668	8728
272.14783	8785
272.16898	8769
272.19012	8774
272.21127	8788
272.23239	8725
272.25354	8743
272.27469	8795
272.29584	8834
272.31699	8873
272.33813	8854
272.35928	8927
272.38043	8882
272.40158	8882
272.42273	8900
272.44388	8926
272.465	8999
272.48615	9016
272.50729	8958
272.52844	9051
272.54959	9088
272.57074	9107
272.59186	9117
272.61301	9121
272.63416	9097
272.6553	9074
272.67645	9089
272.69757	9119
272.71872	9182
272.73987	9248
272.76102	9151
272.78217	9066
272.80328	9003
272.82443	9084
272.84558	9140
272.86673	9262
272.88785	9219
272.909	9152
272.93015	9190
272.95126	9215
272.97241	9212
272.99356	9190
273.01468	9233
273.03583	9213
273.05698	9237
273.07813	9258
273.09924	9221
273.12039	9257
273.14151	9331
273.16266	9262
273.18381	9189
273.20493	9280
273.22607	9264
273.24722	9307
273.26834	9292
273.28949	9282
273.31061	9304
273.33176	9208
273.35291	9150
273.37402	9096
273.39517	9130
273.41629	9107
273.43744	9146
273.45856	9183
273.47971	9235
273.50082	9233
273.52197	9133
273.54312	9175
273.56424	9148
273.58539	9182
273.60651	9241
273.62766	9312
273.64877	9380
273.66992	9398
273.69104	9327
273.71216	9328
273.73331	9419
273.75443	9458
273.77557	9463
273.79669	9467
273.81784	9446
273.83896	9480
273.86011	9393
273.88123	9287
273.90234	9297
273.92349	9368
273.94461	9395
273.96576	9427
273.98688	9508
274.008	9555
274.02914	9534
274.05026	9512
274.07138	9578
274.09253	9585
274.11365	9556
274.13477	9594
274.15591	9686
274.17703	9714
274.19815	9608
274.2193	9587
274.24042	9590
274.26154	9585
274.28265	9616
274.3038	9606
274.32492	9633
274.34604	9606
274.36719	9515
274.38831	9558
274.40942	9555
274.43054	9581
274.45166	9584
274.47281	9692
274.49393	9659
274.51505	9677
274.53616	9603
274.55731	9591
274.57843	9660
274.59955	9704
274.62067	9709
274.64178	9716
274.6629	9724
274.68405	9764
274.70517	9725
274.72629	9641
274.74741	9592
274.76852	9582
274.78964	9581
274.81076	9642
274.83188	9740
274.853	9762
274.87415	9789
274.89526	9787
274.91638	9808
274.9375	9822
274.95862	9842
274.97974	9858
275.00085	9862
275.02197	9883
275.04309	9875
275.06421	9835
275.08533	9893
275.10645	9866
275.12756	9826
275.14868	9952
275.1698	10021
275.19092	10104
275.21204	10037
275.23315	10060
275.25427	9967
275.27539	10107
275.29651	10200
275.31763	10227
275.33875	10263
275.35986	10256
275.38098	10370
275.4021	10342
275.42322	10376
275.44431	10296
275.46542	10301
275.48654	10314
275.50766	10375
275.52878	10305
275.5499	10292
275.57101	10261
275.59213	10287
275.61322	10312
275.63434	10252
275.65546	10264
275.67657	10192
275.69769	10223
275.71881	10212
275.7399	10217
275.76102	10211
275.78214	10262
275.80325	10337
275.82437	10375
275.84546	10445
275.86658	10386
275.8877	10438
275.90881	10430
275.9299	10371
275.95102	10419
275.97214	10436
275.99326	10460
276.01434	10431
276.03546	10410
276.05658	10334
276.07767	10341
276.09879	10352
276.1199	10451
276.14099	10352
276.16211	10405
276.18323	10341
276.20432	10410
276.22543	10425
276.24655	10502
276.26764	10574
276.28876	10566
276.30988	10627
276.33096	10657
276.35208	10605
276.37317	10597
276.39429	10545
276.41541	10598
276.43649	10578
276.45761	10621
276.4787	10606
276.49982	10586
276.5209	10576
276.54202	10592
276.56311	10654
276.58423	10770
276.60532	10810
276.62643	10874
276.64752	10842
276.66864	10773
276.68973	10742
276.71085	10817
276.73193	10901
276.75305	10921
276.77414	11077
276.79526	11130
276.81635	11083
276.83746	11089
276.85855	11048
276.87967	11057
276.90076	11131
276.92184	11156
276.94296	11099
276.96405	11135
276.98517	11103
277.00626	11104
277.02734	11097
277.04846	11016
277.06955	10914
277.09067	10897
277.11176	11032
277.13284	11108
277.15396	11154
277.17505	11145
277.19614	11075
277.21725	11159
277.23834	11258
277.25943	11327
277.28052	11299
277.30164	11317
277.32272	11366
277.34381	11407
277.36493	11321
277.38602	11361
277.4071	11389
277.42819	11417
277.44931	11353
277.4704	11257
277.49149	11304
277.51257	11356
277.53366	11370
277.55478	11308
277.57587	11351
277.59695	11466
277.61804	11427
277.63913	11330
277.66025	11250
277.68134	11273
277.70242	11329
277.72351	11396
277.7446	11420
277.76569	11419
277.78677	11489
277.80789	11324
277.82898	11299
277.85007	11336
277.87115	11365
277.89224	11433
277.91333	11483
277.93442	11617
277.95551	11541
277.97659	11531
277.99768	11585
278.01877	11643
278.03986	11674
278.06094	11713
278.08203	11657
278.10312	11669
278.12424	11663
278.14532	11552
278.16641	11659
278.1875	11717
278.20856	11878
278.22964	11809
278.25073	11859
278.27182	11877
278.29291	11979
278.314	11991
278.33508	11953
278.35617	11940
278.37726	11871
278.39835	11910
278.41943	11940
278.44052	11978
278.46161	12073
278.4827	12025
278.50378	11975
278.52484	11913
278.54593	11880
278.56702	11888
278.5881	11975
278.60919	12101
278.63028	12102
278.65137	12075
278.67242	12107
278.69351	12166
278.7146	12224
278.73569	12209
278.75677	12198
278.77783	12192
278.79892	12204
278.82001	12129
278.84109	12118
278.86215	12201
278.88324	12220
278.90433	12181
278.92542	12121
278.94647	12259
278.96756	12345
278.98865	12329
279.00974	12382
279.03079	12416
279.05188	12329
279.07297	12243
279.09402	12142
279.11511	12105
279.1362	12048
279.15726	12070
279.17834	12162
279.19943	12274
279.22049	12235
279.24158	12218
279.26266	12177
279.28372	12167
279.30481	12165
279.32587	12249
279.34695	12283
279.36804	12375
279.3891	12474
279.41019	12373
279.43124	12353
279.45233	12449
279.47342	12506
279.49448	12540
279.51556	12539
279.53662	12598
279.55771	12574
279.57877	12477
279.59985	12408
279.62091	12337
279.642	12332
279.66306	12359
279.68414	12429
279.7052	12567
279.72629	12669
279.74734	12614
279.76843	12691
279.78949	12698
279.81055	12720
279.83163	12868
279.85269	12900
279.87378	13019
279.89484	13070
279.91592	13027
279.93698	13001
279.95804	13002
279.97913	13014
280.00018	13036
280.02124	13035
280.04233	13065
280.06339	13043
280.08444	12969
280.10553	12999
280.12659	12987
280.14764	13017
280.16873	13035
280.18979	13073
280.21085	13195
280.23193	13143
280.25299	12994
280.27405	12920
280.29514	13013
280.31619	13029
280.33725	13097
280.35831	13271
280.37939	13274
280.40045	13314
280.42151	13306
280.44257	13192
280.46362	13049
280.48471	13048
280.50577	13063
280.52682	13111
280.54788	13167
280.56894	13337
280.59003	13239
280.61108	13256
280.63214	13154
280.6532	13194
280.67426	13235
280.69531	13177
280.71637	13277
280.73746	13281
280.75851	13292
280.77957	13283
280.80063	13219
280.82169	13257
280.84274	13142
280.8638	13218
280.88486	13347
280.90591	13451
280.92697	13456
280.94803	13423
280.96909	13408
280.99014	13408
281.0112	13495
281.03226	13560
281.05331	13633
281.07437	13743
281.09543	13774
281.11649	13744
281.13754	13871
281.1586	13901
281.17966	13877
281.20071	13947
281.22177	13916
281.24283	13961
281.26389	13980
281.28494	13930
281.306	13964
281.32706	13922
281.34811	13950
281.36917	13825
281.39023	13836
281.41129	13795
281.43231	13766
281.45337	13835
281.47443	13881
281.49548	13852
281.51654	13973
281.5376	14049
281.55865	14178
281.57968	14073
281.60074	14170
281.6218	14261
281.64285	14196
281.66391	14148
281.68494	14067
281.70599	14136
281.72705	14213
281.74811	14177
281.76913	14125
281.79019	14021
281.81125	14109
281.83231	14143
281.85333	14121
281.87439	14104
281.89545	14106
281.9165	14037
281.93753	14048
281.95859	14115
281.97964	14214
282.00067	14309
282.02173	14348
282.04279	14340
282.06381	14325
282.08487	14299
282.10593	14264
282.12695	14257
282.14801	14226
282.16907	14324
282.19009	14405
282.21115	14481
282.23218	14423
282.25323	14373
282.27429	14358
282.29532	14452
282.31638	14644
282.3374	14703
282.35846	14818
282.37949	14800
282.40054	14635
282.42157	14589
282.44263	14574
282.46365	14594
282.48471	14890
282.50574	15077
282.52679	15052
282.54782	15131
282.56888	15101
282.5899	15124
282.61096	15068
282.63199	15049
282.65305	15002
282.67407	15058
282.69513	14941
282.71616	14929
282.73718	14887
282.75824	14911
282.77927	14788
282.80032	14800
282.82135	14847
282.84238	15063
282.86343	15103
282.88446	15128
282.90552	15094
282.92654	14992
282.94757	15128
282.96863	15233
282.98965	15404
283.01068	15431
283.03174	15357
283.05276	15446
283.07379	15553
283.09482	15530
283.11588	15338
283.1369	15359
283.15793	15411
283.17899	15366
283.20001	15332
283.22104	15446
283.24207	15471
283.26312	15615
283.28415	15786
283.30518	15903
283.3262	16027
283.34723	15868
283.36829	15732
283.38931	15660
283.41034	15716
283.43137	15658
283.45239	15783
283.47342	15863
283.49448	15942
283.5155	15875
283.53653	15747
283.55756	15775
283.57858	15767
283.59961	15838
283.62064	16008
283.64166	16051
283.66272	16072
283.68375	16174
283.70477	16146
283.7258	16159
283.74683	16186
283.76785	16252
283.78888	16284
283.80991	16306
283.83093	16303
283.85196	16320
283.87299	16279
283.89401	16212
283.91504	16196
283.93607	16270
283.95709	16294
283.97812	16370
283.99915	16509
284.02017	16569
284.0412	16531
284.06223	16484
284.08325	16658
284.10428	16660
284.12531	16749
284.14633	16781
284.16733	16815
284.18835	16786
284.20938	16682
284.23041	16704
284.25143	16720
284.27246	16794
284.29349	16899
284.31451	16929
284.33551	16976
284.35654	16936
284.37756	16894
284.39859	16918
284.41962	16865
284.44064	17038
284.46164	17096
284.48267	17063
284.50369	16961
284.52472	16896
284.54575	16880
284.56674	16988
284.58777	17078
284.6088	17027
284.62982	17008
284.65082	17173
284.67184	17234
284.69287	17204
284.71387	17153
284.73489	17072
284.75592	16960
284.77695	16886
284.79794	16659
284.81897	16428
284.84	16457
284.86099	16462
284.88202	16409
284.90305	16528
284.92404	16630
284.94507	16585
284.96606	16528
284.98709	16559
285.00812	16530
285.02911	16548
285.05014	16673
285.07114	16767
285.09216	17036
285.11319	17073
285.13419	16946
285.15521	16989
285.17621	17162
285.19724	17270
285.21823	17291
285.23926	17281
285.26025	17349
285.28128	17255
285.30228	17004
285.3233	16934
285.3443	17013
285.36533	16990
285.38632	16998
285.40735	17217
285.42834	17399
285.44937	17556
285.47037	17378
285.49136	17272
285.51239	17334
285.53339	17514
285.55441	17674
285.57541	17821
285.59644	17864
285.61743	17959
285.63843	17897
285.65945	17870
285.68045	17817
285.70145	17717
285.72247	17671
285.74347	17700
285.76447	17841
285.78549	17811
285.80649	17795
285.82748	17773
