Date and Time:                Mon Jan 30 17:12:32.000 2023
Software Version:             4.31.30023.0
Temperature (C):              -40
Model:                        DU940P_BU2
Data Type:                    Counts
Acquisition Mode:             Single Scan
Trigger Mode:                 Internal
Exposure Time (secs):         4.2
Readout Mode:                 Full Vertical Binning
Horizontal binning:           1
Extended Dynamic Range:       off
Horizontally flipped:         false
Vertical Shift Speed (usecs): 14.51
Pixel Readout Rate (MHz):     3
Baseline Clamp:               ON
Clock Amplitude:              Normal
Output Amplifier:             High Capacity
Serial Number:                23634
Pre-Amplifier Gain:           1.000000
Spurious Noise Filter Mode:   No Filter
Photon counted:               false
Data Averaging Filter Mode:   No Filter
SR500i:
Serial Number:                
Wavelength (nm):              225
Grating Groove Density (l/mm):1199.47
Grating Blaze:                500
Output Flipper Port:          Direct
Accessory Output Port 1:      Off
Accessory Output Port 2:      Off
Accessory Output Port 3:      Off
Accessory Input Port:         On



203.08546	12158
203.10698	11566
203.12848	11637
203.14999	11602
203.17151	11637
203.19302	11719
203.21452	11782
203.23604	11701
203.25755	11698
203.27905	11660
203.30057	11614
203.32208	11581
203.34358	11511
203.3651	11594
203.38661	11651
203.40811	11704
203.42963	11731
203.45113	11719
203.47264	11814
203.49416	11820
203.51566	11840
203.53717	11852
203.55867	11846
203.58018	11878
203.60168	11875
203.6232	11866
203.6447	11920
203.66621	11966
203.68771	11990
203.70923	11944
203.73073	12019
203.75224	12027
203.77374	12056
203.79526	12020
203.81676	12051
203.83827	12023
203.85977	12095
203.88127	12084
203.90279	12195
203.92429	12164
203.94579	12150
203.9673	12148
203.9888	12106
204.01031	12079
204.03181	12103
204.05331	12194
204.07481	12224
204.09633	12242
204.11783	12246
204.13933	12192
204.16084	12232
204.18234	12231
204.20384	12273
204.22534	12306
204.24684	12234
204.26836	12273
204.28986	12339
204.31136	12306
204.33286	12326
204.35435	12415
204.37587	12352
204.39737	12330
204.41887	12364
204.44037	12407
204.46187	12351
204.48337	12342
204.50487	12259
204.52637	12306
204.54787	12254
204.56937	12226
204.59087	12238
204.61237	12342
204.63387	12320
204.65536	12366
204.67688	12347
204.69836	12331
204.71986	12266
204.74136	12261
204.76286	12277
204.78436	12320
204.80586	12393
204.82736	12375
204.84886	12365
204.87036	12355
204.89186	12346
204.91336	12436
204.93486	12523
204.95636	12463
204.97784	12447
204.99934	12466
205.02084	12491
205.04234	12421
205.06384	12443
205.08534	12469
205.10683	12547
205.12833	12559
205.14983	12556
205.17133	12540
205.19281	12573
205.21431	12662
205.23581	12632
205.25731	12615
205.27879	12591
205.30029	12583
205.32179	12621
205.34328	12684
205.36478	12769
205.38628	12786
205.40776	12707
205.42926	12604
205.45074	12664
205.47224	12703
205.49374	12667
205.51523	12708
205.53673	12798
205.55821	12731
205.57971	12685
205.6012	12804
205.6227	12834
205.6442	12721
205.66568	12849
205.68718	12826
205.70866	12838
205.73015	12791
205.75165	12742
205.77313	12792
205.79463	12807
205.81612	12754
205.83762	12724
205.8591	12766
205.88058	12834
205.90208	12823
205.92357	12790
205.94507	12772
205.96655	12715
205.98804	12778
206.00954	12750
206.03102	12727
206.05251	12771
206.07401	12838
206.09549	12734
206.11697	12749
206.13846	12819
206.15996	12757
206.18144	12701
206.20293	12761
206.22441	12780
206.24591	12774
206.2674	12848
206.28888	12842
206.31036	12951
206.33185	12989
206.35335	13005
206.37483	13078
206.39632	13050
206.4178	13056
206.43929	13042
206.46077	13006
206.48225	13065
206.50374	13027
206.52522	13013
206.54672	13060
206.56821	13041
206.58969	13158
206.61118	13119
206.63266	13213
206.65414	13274
206.67563	13406
206.69711	13324
206.7186	13317
206.74008	13272
206.76157	13324
206.78304	13358
206.80452	13355
206.826	13470
206.84749	13486
206.86897	13537
206.89046	13520
206.91194	13551
206.93343	13525
206.95491	13532
206.97638	13545
206.99786	13567
207.01935	13624
207.04083	13512
207.06232	13539
207.0838	13643
207.10527	13596
207.12675	13612
207.14824	13492
207.16972	13437
207.19119	13474
207.21268	13442
207.23416	13477
207.25563	13520
207.27711	13518
207.2986	13642
207.32007	13657
207.34155	13727
207.36304	13638
207.38451	13709
207.40599	13809
207.42747	13825
207.44894	13751
207.47043	13770
207.4919	13769
207.51338	13671
207.53487	13669
207.55634	13618
207.57782	13644
207.59929	13774
207.62077	13731
207.64224	13775
207.66373	13741
207.6852	13798
207.70668	13697
207.72815	13718
207.74962	13743
207.7711	13915
207.79257	13948
207.81406	13924
207.83553	13924
207.85701	13986
207.87848	13945
207.89995	13927
207.92143	13887
207.9429	13909
207.96437	13956
207.98586	13968
208.00732	13967
208.02879	13895
208.05028	13828
208.07175	13828
208.09322	13963
208.11469	14052
208.13617	14098
208.15764	14143
208.17911	14120
208.20058	14084
208.22205	14113
208.24353	14122
208.265	14178
208.28647	14312
208.30794	14291
208.32941	14304
208.35088	14246
208.37236	14292
208.39383	14300
208.4153	14310
208.43677	14327
208.45824	14305
208.47971	14319
208.50117	14235
208.52264	14170
208.54411	14200
208.56558	14259
208.58705	14187
208.60852	14129
208.62999	14079
208.65146	14038
208.67293	14117
208.6944	14204
208.71587	14159
208.73734	14271
208.7588	14210
208.78027	14251
208.80174	14408
208.82321	14399
208.84467	14296
208.86613	14260
208.8876	14222
208.90907	14223
208.93054	14172
208.95201	14164
208.97346	14181
208.99493	14176
209.0164	14082
209.03787	14122
209.05934	14129
209.0808	14140
209.10226	14052
209.12373	14026
209.1452	13973
209.16666	13970
209.18813	14011
209.20959	14005
209.23105	14181
209.25252	14224
209.27399	14168
209.29544	14133
209.31691	14186
209.33836	14151
209.35983	14169
209.3813	14124
209.40276	14209
209.42422	14109
209.44568	14176
209.46715	14146
209.4886	14165
209.51007	14129
209.53152	14174
209.55299	14154
209.57445	14293
209.59592	14356
209.61737	14355
209.63884	14270
209.66029	14254
209.68176	14258
209.70322	14300
209.72469	14303
209.74614	14312
209.76759	14389
209.78906	14320
209.81052	14292
209.83197	14321
209.85344	14346
209.87489	14271
209.89635	14352
209.91782	14371
209.93927	14343
209.96072	14331
209.98219	14308
210.00365	14342
210.0251	14366
210.04655	14354
210.06802	14443
210.08948	14504
210.11093	14499
210.13239	14399
210.15384	14393
210.17531	14393
210.19676	14481
210.21822	14458
210.23967	14530
210.26112	14617
210.28258	14548
210.30403	14613
210.32549	14628
210.34695	14682
210.36841	14745
210.38986	14614
210.41132	14612
210.43277	14589
210.45422	14620
210.47568	14719
210.49713	14741
210.51859	14835
210.54004	14798
210.56149	14693
210.58295	14675
210.6044	14760
210.62585	14718
210.64729	14750
210.66875	14794
210.6902	14903
210.71165	14932
210.73311	14959
210.75456	14852
210.77602	14974
210.79747	14971
210.81891	15026
210.84036	15040
210.86182	15056
210.88327	15046
210.90472	15057
210.92616	14999
210.94762	15043
210.96907	15003
210.99052	15134
211.01196	15084
211.03342	15223
211.05487	15262
211.07631	15244
211.09776	15191
211.11922	15142
211.14066	15071
211.16211	15148
211.18356	15126
211.205	15276
211.22646	15212
211.24791	15187
211.26935	15146
211.2908	15059
211.31224	15005
211.33369	15042
211.35513	15175
211.37659	15168
211.39803	15192
211.41948	15095
211.44092	15092
211.46237	15166
211.48381	15110
211.50526	15127
211.5267	15169
211.54816	15242
211.5696	15194
211.59103	15144
211.61249	15083
211.63393	15152
211.65538	15188
211.67682	15193
211.69826	15272
211.71971	15294
211.74115	15310
211.76259	15368
211.78404	15341
211.80548	15332
211.82692	15274
211.84836	15146
211.86981	15107
211.89125	15096
211.91269	15098
211.93413	15085
211.95558	15131
211.97702	15210
211.99846	15146
212.0199	15097
212.04134	15000
212.06277	15105
212.08423	15032
212.10567	15114
212.12711	15235
212.14854	15356
212.16998	15385
212.19142	15293
212.21286	15312
212.2343	15384
212.25574	15260
212.27718	15273
212.29861	15287
212.32005	15263
212.34149	15278
212.36293	15233
212.38437	15209
212.40581	15298
212.42725	15308
212.44868	15348
212.47012	15409
212.49156	15450
212.513	15482
212.53444	15461
212.55588	15466
212.57732	15416
212.59874	15421
212.62018	15469
212.64162	15538
212.66306	15617
212.68449	15757
212.70593	15689
212.72736	15747
212.74879	15667
212.77023	15707
212.79167	15689
212.8131	15614
212.83453	15731
212.85597	15657
212.87741	15571
212.89883	15564
212.92027	15586
212.94171	15630
212.96313	15585
212.98457	15505
213.00601	15419
213.02744	15514
213.04887	15535
213.0703	15642
213.09174	15489
213.11317	15493
213.1346	15491
213.15604	15595
213.17746	15711
213.1989	15699
213.22032	15741
213.24176	15662
213.26318	15634
213.28462	15567
213.30605	15514
213.32748	15482
213.34891	15500
213.37033	15492
213.39177	15445
213.41319	15506
213.43463	15565
213.45605	15517
213.47748	15484
213.49892	15454
213.52034	15477
213.54176	15407
213.5632	15464
213.58463	15451
213.60605	15537
213.62749	15503
213.64891	15519
213.67033	15616
213.69177	15657
213.7132	15555
213.73462	15583
213.75604	15546
213.77747	15607
213.7989	15589
213.82033	15547
213.84175	15597
213.86317	15520
213.8846	15524
213.90602	15512
213.92744	15703
213.94888	15833
213.97031	15807
213.99173	15789
214.01315	15825
214.03458	15768
214.056	15701
214.07742	15792
214.09885	15901
214.12027	15941
214.14169	16024
214.16312	15956
214.18454	16032
214.20596	15983
214.22739	15984
214.24881	15942
214.27023	15969
214.29166	16002
214.31308	15956
214.33449	15917
214.35591	15868
214.37733	15980
214.39876	15977
214.42018	15905
214.4416	15887
214.46303	15792
214.48444	15778
214.50586	15823
214.52728	15846
214.54871	15850
214.57011	15841
214.59154	15828
214.61296	15864
214.63438	15967
214.65579	15908
214.67722	15913
214.69864	15888
214.72005	15904
214.74147	15757
214.76289	15784
214.7843	15821
214.80573	15796
214.82715	15711
214.84856	15639
214.86998	15604
214.89139	15700
214.91281	15693
214.93423	15719
214.95564	15658
214.97707	15676
214.99847	15608
215.0199	15539
215.04131	15545
215.06273	15571
215.08414	15632
215.10556	15603
215.12697	15680
215.14838	15701
215.1698	15620
215.19121	15547
215.21263	15547
215.23404	15495
215.25545	15463
215.27687	15542
215.29828	15555
215.31969	15660
215.34111	15553
215.36252	15536
215.38393	15610
215.40535	15762
215.42676	15783
215.44817	15703
215.46957	15694
215.491	15716
215.51241	15689
215.53381	15678
215.55522	15705
215.57663	15725
215.59805	15799
215.61946	15792
215.64087	15833
215.66228	15852
215.68369	15898
215.70509	15862
215.7265	15912
215.74792	15957
215.76933	15902
215.79074	15919
215.81215	15990
215.83356	16071
215.85497	16031
215.87637	15903
215.89778	15873
215.91919	15900
215.9406	15904
215.96201	15899
215.98341	15948
216.00482	15991
216.02623	15983
216.04762	15945
216.06903	15939
216.09044	15971
216.11185	16007
216.13326	15976
216.15466	16088
216.17607	16101
216.19748	16167
216.21887	16039
216.24028	16123
216.26169	16145
216.2831	16232
216.3045	16151
216.3259	16277
216.34731	16180
216.36871	16165
216.39012	16129
216.41151	16029
216.43292	15922
216.45433	15938
216.47572	15972
216.49713	16087
216.51854	15999
216.53993	16003
216.56134	16111
216.58273	16071
216.60414	16143
216.62555	16120
216.64694	16138
216.66835	16276
216.68974	16211
216.71115	16219
216.73254	16196
216.75395	16151
216.77534	16243
216.79675	16231
216.81815	16263
216.83955	16307
216.86095	16391
216.88235	16480
216.90375	16370
216.92514	16345
216.94655	16334
216.96794	16392
216.98935	16469
217.01074	16553
217.03214	16574
217.05354	16530
217.07494	16596
217.09633	16631
217.11774	16466
217.13913	16432
217.16052	16428
217.18192	16541
217.20332	16475
217.22472	16527
217.24611	16415
217.2675	16463
217.28891	16463
217.3103	16426
217.3317	16360
217.35309	16309
217.37448	16308
217.39587	16305
217.41727	16336
217.43867	16262
217.46007	16239
217.48146	16256
217.50285	16329
217.52425	16354
217.54564	16457
217.56703	16416
217.58842	16479
217.60982	16465
217.63121	16466
217.6526	16419
217.674	16329
217.69539	16340
217.71678	16284
217.73817	16243
217.75957	16183
217.78096	16144
217.80235	16205
217.82373	16225
217.84512	16176
217.86652	16185
217.88791	16059
217.9093	16017
217.93069	16101
217.95209	16212
217.97346	16255
217.99486	16281
218.01625	16193
218.03764	16254
218.05902	16223
218.08041	16179
218.10181	16106
218.1232	16128
218.14458	16051
218.16597	16111
218.18736	16058
218.20874	16086
218.23013	16133
218.25153	16045
218.2729	16033
218.2943	16115
218.31567	16286
218.33707	16264
218.35846	16241
218.37984	16271
218.40123	16246
218.42261	16281
218.444	16269
218.46538	16394
218.48677	16537
218.50815	16502
218.52954	16415
218.55092	16421
218.57231	16368
218.59369	16250
218.61507	16299
218.63646	16340
218.65784	16308
218.67923	16225
218.70061	16220
218.72198	16207
218.74338	16187
218.76476	16166
218.78613	16005
218.80753	15914
218.8289	16023
218.85028	16005
218.87166	16058
218.89305	16001
218.91443	15949
218.93581	15987
218.95718	16044
218.97858	16136
218.99995	16164
219.02133	16152
219.04271	16090
219.06409	16098
219.08546	16072
219.10686	15951
219.12823	15995
219.14961	16000
219.17099	15931
219.19237	15824
219.21375	15885
219.23512	15914
219.2565	15910
219.27788	15866
219.29926	15843
219.32063	15834
219.34201	15818
219.36339	15762
219.38477	15795
219.40614	15860
219.42752	15883
219.4489	15900
219.47028	15839
219.49165	15898
219.51303	15903
219.53439	15770
219.55577	15724
219.57715	15722
219.59853	15796
219.6199	15714
219.64128	15764
219.66264	15822
219.68402	15741
219.7054	15714
219.72678	15784
219.74814	15893
219.76952	15918
219.79089	15896
219.81227	15864
219.83363	15777
219.85501	15739
219.87639	15720
219.89775	15715
219.91913	15872
219.94051	16038
219.96187	15913
219.98325	15962
220.00461	15957
220.02599	16041
220.04735	16010
220.06873	15929
220.0901	15925
220.11147	15896
220.13284	15913
220.15421	15822
220.17558	15865
220.19695	15954
220.21832	15889
220.23969	15769
220.26105	15802
220.28242	15749
220.30379	15731
220.32516	15779
220.34653	15823
220.36789	15790
220.38927	15805
220.41063	15837
220.43199	16051
220.45337	15966
220.47473	15929
220.49609	15874
220.51747	15855
220.53883	15844
220.5602	15758
220.58156	15819
220.60294	15858
220.6243	15813
220.64566	15719
220.66702	15664
220.68839	15777
220.70976	15847
220.73112	15832
220.75249	15876
220.77385	15869
220.79521	15740
220.81657	15722
220.83794	15665
220.8593	15715
220.88066	15599
220.90202	15614
220.92339	15757
220.94475	15700
220.96611	15723
220.98747	15576
221.00883	15493
221.0302	15524
221.05156	15538
221.07292	15496
221.09428	15581
221.11565	15581
221.13701	15609
221.15837	15566
221.17973	15488
221.2011	15615
221.22246	15607
221.2438	15571
221.26517	15650
221.28653	15645
221.30789	15649
221.32925	15576
221.3506	15484
221.37196	15460
221.39333	15505
221.41469	15529
221.43604	15582
221.4574	15686
221.47876	15720
221.50011	15763
221.52147	15750
221.54283	15800
221.56418	15834
221.58554	15887
221.6069	15915
221.62825	15932
221.64961	16020
221.67096	15938
221.69232	15789
221.71368	15805
221.73503	15776
221.75639	15778
221.77774	15802
221.7991	15880
221.82045	15800
221.84181	15843
221.86316	15785
221.88451	15839
221.90587	15820
221.92722	15801
221.94858	15880
221.96992	15880
221.99127	15876
222.01263	15835
222.03398	15855
222.05534	15851
222.07669	15865
222.09804	15856
222.11938	15997
222.14075	16087
222.16209	16068
222.18344	16019
222.2048	15874
222.22615	15815
222.2475	15750
222.26884	15697
222.29019	15778
222.31155	15743
222.3329	15846
222.35425	15742
222.3756	15793
222.39694	15798
222.41829	15869
222.43964	15831
222.46098	15851
222.48235	15817
222.50369	15866
222.52504	15945
222.54639	15836
222.56773	15879
222.58908	15924
222.61043	15780
222.63177	15820
222.65312	16008
222.67447	16078
222.69582	16073
222.71715	15983
222.73849	15951
222.75984	15940
222.78119	16010
222.80254	16022
222.82388	16143
222.84523	16257
222.86658	16268
222.88791	16228
222.90926	16204
222.9306	16153
222.95195	16216
222.9733	16247
222.99463	16284
223.01598	16279
223.03732	16260
223.05867	16204
223.08	16212
223.10135	16230
223.1227	16211
223.14403	16226
223.16537	16145
223.18672	16203
223.20805	16116
223.2294	16178
223.25073	16203
223.27208	16194
223.29343	16194
223.31476	16294
223.33611	16386
223.35744	16326
223.37878	16382
223.40012	16404
223.42146	16433
223.44279	16323
223.46414	16231
223.48547	16189
223.50682	16190
223.52815	16064
223.54948	16001
223.57083	16063
223.59216	16047
223.61349	16112
223.63484	15991
223.65617	15947
223.67752	15942
223.69885	15852
223.72018	15892
223.74152	15916
223.76286	16048
223.78419	16131
223.80553	16105
223.82686	16065
223.84821	16036
223.86954	16027
223.89087	15969
223.9122	16039
223.93353	16069
223.95488	16133
223.97621	16168
223.99754	16128
224.01888	16133
224.04021	16070
224.06154	16093
224.08287	16138
224.1042	16405
224.12553	16494
224.14687	16510
224.1682	16436
224.18953	16278
224.21086	16300
224.23219	16245
224.25352	16286
224.27486	16420
224.29619	16604
224.31752	16512
224.33885	16523
224.36018	16612
224.38152	16553
224.40285	16504
224.42418	16503
224.4455	16560
224.46683	16480
224.48816	16349
224.50949	16297
224.53082	16208
224.55214	16188
224.57347	16180
224.5948	16207
224.61613	16241
224.63745	16306
224.65878	16335
224.68011	16296
224.70145	16313
224.72276	16347
224.74409	16399
224.76541	16512
224.78674	16670
224.80807	16641
224.82939	16580
224.85072	16573
224.87204	16685
224.89337	16633
224.9147	16457
224.93602	16575
224.95735	16467
224.97867	16369
225	16398
225.02132	16508
225.04265	16542
225.06396	16669
225.08528	16705
225.10661	16739
225.12793	16762
225.14926	16719
225.17058	16713
225.19189	16726
225.21323	16745
225.23454	16744
225.25586	16776
225.27719	16831
225.29851	16828
225.31982	16809
225.34116	16668
225.36247	16677
225.38379	16641
225.40511	16752
225.42644	16712
225.44775	16751
225.46907	16759
225.49039	16805
225.5117	16722
225.53304	16804
225.55435	16814
225.57567	16895
225.59698	16809
225.6183	16850
225.63962	16913
225.66093	16836
225.68225	16804
225.70357	16826
225.72488	16884
225.7462	16872
225.76752	16878
225.78883	16946
225.81015	16974
225.83147	16968
225.85278	17053
225.8741	17021
225.89542	17028
225.91673	17052
225.93805	17031
225.95937	16983
225.98068	16972
226.00198	17077
226.0233	16909
226.04462	16954
226.06593	16979
226.08725	17033
226.10855	17027
226.12987	17006
226.15118	17061
226.1725	17023
226.1938	17102
226.21512	17128
226.23643	17085
226.25775	17102
226.27905	17166
226.30037	17120
226.32167	17135
226.34299	17026
226.3643	17079
226.3856	17160
226.40692	17152
226.42824	17104
226.44954	17149
226.47086	17060
226.49216	17187
226.51347	17085
226.53477	17098
226.55609	16972
226.57739	16959
226.59871	16896
226.62001	16681
226.64131	16651
226.66263	16636
226.68393	16660
226.70525	16546
226.72655	16663
226.74785	16694
226.76917	16651
226.79047	16640
226.81177	16598
226.83308	16592
226.85439	16523
226.87569	16683
