Date and Time:                Mon Jan 30 17:12:42.000 2023
Software Version:             4.31.30023.0
Temperature (C):              -40
Model:                        DU940P_BU2
Data Type:                    Counts
Acquisition Mode:             Single Scan
Trigger Mode:                 Internal
Exposure Time (secs):         4.2
Readout Mode:                 Full Vertical Binning
Horizontal binning:           1
Extended Dynamic Range:       off
Horizontally flipped:         false
Vertical Shift Speed (usecs): 14.51
Pixel Readout Rate (MHz):     3
Baseline Clamp:               ON
Clock Amplitude:              Normal
Output Amplifier:             High Capacity
Serial Number:                23634
Pre-Amplifier Gain:           1.000000
Spurious Noise Filter Mode:   No Filter
Photon counted:               false
Data Averaging Filter Mode:   No Filter
SR500i:
Serial Number:                
Wavelength (nm):              225
Grating Groove Density (l/mm):1199.47
Grating Blaze:                500
Output Flipper Port:          Direct
Accessory Output Port 1:      Off
Accessory Output Port 2:      Off
Accessory Output Port 3:      Off
Accessory Input Port:         On



203.08546	12147
203.10698	11633
203.12848	11586
203.14999	11601
203.17151	11587
203.19302	11674
203.21452	11713
203.23604	11696
203.25755	11648
203.27905	11667
203.30057	11633
203.32208	11574
203.34358	11523
203.3651	11616
203.38661	11651
203.40811	11727
203.42963	11742
203.45113	11732
203.47264	11755
203.49416	11828
203.51566	11836
203.53717	11801
203.55867	11837
203.58018	11854
203.60168	11837
203.6232	11816
203.6447	11948
203.66621	11947
203.68771	11923
203.70923	11943
203.73073	11935
203.75224	11983
203.77374	11976
203.79526	11963
203.81676	11989
203.83827	11970
203.85977	12024
203.88127	12092
203.90279	12138
203.92429	12134
203.94579	12164
203.9673	12095
203.9888	12098
204.01031	12056
204.03181	12076
204.05331	12116
204.07481	12131
204.09633	12179
204.11783	12161
204.13933	12212
204.16084	12246
204.18234	12153
204.20384	12216
204.22534	12210
204.24684	12288
204.26836	12245
204.28986	12264
204.31136	12275
204.33286	12390
204.35435	12375
204.37587	12329
204.39737	12292
204.41887	12326
204.44037	12323
204.46187	12311
204.48337	12276
204.50487	12241
204.52637	12285
204.54787	12252
204.56937	12211
204.59087	12238
204.61237	12331
204.63387	12292
204.65536	12305
204.67688	12324
204.69836	12268
204.71986	12230
204.74136	12211
204.76286	12275
204.78436	12330
204.80586	12282
204.82736	12302
204.84886	12319
204.87036	12307
204.89186	12361
204.91336	12407
204.93486	12488
204.95636	12457
204.97784	12459
204.99934	12411
205.02084	12478
205.04234	12414
205.06384	12395
205.08534	12473
205.10683	12554
205.12833	12503
205.14983	12542
205.17133	12525
205.19281	12546
205.21431	12602
205.23581	12602
205.25731	12542
205.27879	12580
205.30029	12619
205.32179	12632
205.34328	12700
205.36478	12737
205.38628	12731
205.40776	12707
205.42926	12629
205.45074	12634
205.47224	12621
205.49374	12702
205.51523	12651
205.53673	12740
205.55821	12784
205.57971	12709
205.6012	12719
205.6227	12798
205.6442	12800
205.66568	12762
205.68718	12870
205.70866	12840
205.73015	12762
205.75165	12758
205.77313	12727
205.79463	12784
205.81612	12768
205.83762	12704
205.8591	12772
205.88058	12747
205.90208	12757
205.92357	12805
205.94507	12721
205.96655	12772
205.98804	12764
206.00954	12723
206.03102	12727
206.05251	12762
206.07401	12723
206.09549	12755
206.11697	12654
206.13846	12750
206.15996	12767
206.18144	12686
206.20293	12746
206.22441	12680
206.24591	12832
206.2674	12792
206.28888	12849
206.31036	12901
206.33185	12949
206.35335	12967
206.37483	13029
206.39632	13013
206.4178	13001
206.43929	13030
206.46077	13024
206.48225	13067
206.50374	13067
206.52522	12990
206.54672	12968
206.56821	13021
206.58969	13171
206.61118	13123
206.63266	13240
206.65414	13253
206.67563	13345
206.69711	13364
206.7186	13314
206.74008	13278
206.76157	13296
206.78304	13337
206.80452	13334
206.826	13387
206.84749	13480
206.86897	13463
206.89046	13423
206.91194	13491
206.93343	13495
206.95491	13437
206.97638	13552
206.99786	13580
207.01935	13566
207.04083	13541
207.06232	13522
207.0838	13569
207.10527	13595
207.12675	13535
207.14824	13455
207.16972	13471
207.19119	13467
207.21268	13475
207.23416	13509
207.25563	13527
207.27711	13520
207.2986	13525
207.32007	13631
207.34155	13619
207.36304	13689
207.38451	13730
207.40599	13785
207.42747	13793
207.44894	13754
207.47043	13761
207.4919	13667
207.51338	13716
207.53487	13617
207.55634	13589
207.57782	13725
207.59929	13721
207.62077	13801
207.64224	13823
207.66373	13733
207.6852	13745
207.70668	13710
207.72815	13684
207.74962	13745
207.7711	13886
207.79257	13877
207.81406	13930
207.83553	13926
207.85701	13949
207.87848	13909
207.89995	13887
207.92143	13857
207.9429	13989
207.96437	13903
207.98586	13908
208.00732	13888
208.02879	13825
208.05028	13798
208.07175	13802
208.09322	13889
208.11469	14036
208.13617	14114
208.15764	14096
208.17911	14093
208.20058	14034
208.22205	14080
208.24353	14106
208.265	14170
208.28647	14241
208.30794	14281
208.32941	14213
208.35088	14251
208.37236	14246
208.39383	14283
208.4153	14300
208.43677	14253
208.45824	14250
208.47971	14216
208.50117	14190
208.52264	14191
208.54411	14250
208.56558	14196
208.58705	14197
208.60852	14134
208.62999	14072
208.65146	14029
208.67293	14079
208.6944	14142
208.71587	14143
208.73734	14160
208.7588	14256
208.78027	14264
208.80174	14385
208.82321	14348
208.84467	14270
208.86613	14321
208.8876	14250
208.90907	14160
208.93054	14191
208.95201	14142
208.97346	14127
208.99493	14135
209.0164	14042
209.03787	14149
209.05934	14153
209.0808	14083
209.10226	14082
209.12373	13973
209.1452	13999
209.16666	13984
209.18813	14023
209.20959	14043
209.23105	14111
209.25252	14121
209.27399	14195
209.29544	14133
209.31691	14134
209.33836	14128
209.35983	14123
209.3813	14146
209.40276	14129
209.42422	14151
209.44568	14173
209.46715	14078
209.4886	14112
209.51007	14108
209.53152	14122
209.55299	14156
209.57445	14280
209.59592	14364
209.61737	14306
209.63884	14306
209.66029	14183
209.68176	14255
209.70322	14286
209.72469	14268
209.74614	14272
209.76759	14366
209.78906	14312
209.81052	14302
209.83197	14331
209.85344	14318
209.87489	14352
209.89635	14353
209.91782	14293
209.93927	14294
209.96072	14240
209.98219	14347
210.00365	14321
210.0251	14369
210.04655	14283
210.06802	14383
210.08948	14393
210.11093	14406
210.13239	14412
210.15384	14336
210.17531	14424
210.19676	14432
210.21822	14449
210.23967	14476
210.26112	14589
210.28258	14576
210.30403	14643
210.32549	14681
210.34695	14671
210.36841	14671
210.38986	14661
210.41132	14590
210.43277	14606
210.45422	14611
210.47568	14645
210.49713	14754
210.51859	14713
210.54004	14741
210.56149	14699
210.58295	14671
210.6044	14751
210.62585	14645
210.64729	14720
210.66875	14751
210.6902	14839
210.71165	14799
210.73311	14908
210.75456	14904
210.77602	14960
210.79747	14996
210.81891	14975
210.84036	15070
210.86182	15057
210.88327	15046
210.90472	15044
210.92616	15064
210.94762	15016
210.96907	15024
210.99052	15104
211.01196	15111
211.03342	15187
211.05487	15264
211.07631	15165
211.09776	15103
211.11922	15090
211.14066	15087
211.16211	15080
211.18356	15121
211.205	15200
211.22646	15204
211.24791	15105
211.26935	15084
211.2908	15028
211.31224	15047
211.33369	15079
211.35513	15175
211.37659	15239
211.39803	15180
211.41948	15033
211.44092	15095
211.46237	15133
211.48381	15101
211.50526	15094
211.5267	15098
211.54816	15166
211.5696	15116
211.59103	15147
211.61249	15092
211.63393	15172
211.65538	15158
211.67682	15177
211.69826	15198
211.71971	15308
211.74115	15328
211.76259	15350
211.78404	15345
211.80548	15246
211.82692	15247
211.84836	15151
211.86981	15099
211.89125	15127
211.91269	15054
211.93413	15061
211.95558	15149
211.97702	15204
211.99846	15108
212.0199	15033
212.04134	15027
212.06277	15040
212.08423	15005
212.10567	15083
212.12711	15184
212.14854	15243
212.16998	15314
212.19142	15247
212.21286	15295
212.2343	15301
212.25574	15257
212.27718	15208
212.29861	15235
212.32005	15232
212.34149	15261
212.36293	15258
212.38437	15212
212.40581	15264
212.42725	15255
212.44868	15305
212.47012	15377
212.49156	15460
212.513	15468
212.53444	15425
212.55588	15458
212.57732	15381
212.59874	15411
212.62018	15464
212.64162	15531
212.66306	15634
212.68449	15750
212.70593	15711
212.72736	15659
212.74879	15645
212.77023	15629
212.79167	15585
212.8131	15646
212.83453	15724
212.85597	15653
212.87741	15549
212.89883	15573
212.92027	15585
212.94171	15545
212.96313	15517
212.98457	15455
213.00601	15495
213.02744	15443
213.04887	15415
213.0703	15516
213.09174	15471
213.11317	15488
213.1346	15474
213.15604	15576
213.17746	15681
213.1989	15730
213.22032	15597
213.24176	15666
213.26318	15642
213.28462	15589
213.30605	15485
213.32748	15450
213.34891	15485
213.37033	15378
213.39177	15376
213.41319	15449
213.43463	15449
213.45605	15514
213.47748	15458
213.49892	15455
213.52034	15477
213.54176	15444
213.5632	15413
213.58463	15393
213.60605	15489
213.62749	15462
213.64891	15525
213.67033	15563
213.69177	15700
213.7132	15549
213.73462	15489
213.75604	15571
213.77747	15580
213.7989	15624
213.82033	15569
213.84175	15550
213.86317	15533
213.8846	15494
213.90602	15405
213.92744	15598
213.94888	15791
213.97031	15790
213.99173	15698
214.01315	15799
214.03458	15688
214.056	15713
214.07742	15755
214.09885	15913
214.12027	15943
214.14169	15965
214.16312	15937
214.18454	16005
214.20596	16012
214.22739	15977
214.24881	15904
214.27023	15878
214.29166	15924
214.31308	16011
214.33449	15887
214.35591	15911
214.37733	15932
214.39876	15924
214.42018	15921
214.4416	15780
214.46303	15762
214.48444	15716
214.50586	15815
214.52728	15847
214.54871	15747
214.57011	15811
214.59154	15821
214.61296	15910
214.63438	15926
214.65579	15907
214.67722	15914
214.69864	15885
214.72005	15864
214.74147	15811
214.76289	15830
214.7843	15794
214.80573	15751
214.82715	15707
214.84856	15640
214.86998	15627
214.89139	15679
214.91281	15667
214.93423	15672
214.95564	15712
214.97707	15642
214.99847	15587
215.0199	15549
215.04131	15594
215.06273	15594
215.08414	15592
215.10556	15647
215.12697	15624
215.14838	15660
215.1698	15584
215.19121	15515
215.21263	15487
215.23404	15451
215.25545	15523
215.27687	15544
215.29828	15516
215.31969	15634
215.34111	15543
215.36252	15523
215.38393	15614
215.40535	15644
215.42676	15714
215.44817	15681
215.46957	15661
215.491	15716
215.51241	15700
215.53381	15609
215.55522	15642
215.57663	15729
215.59805	15731
215.61946	15738
215.64087	15829
215.66228	15820
215.68369	15901
215.70509	15833
215.7265	15835
215.74792	15859
215.76933	15860
215.79074	15856
215.81215	15953
215.83356	16086
215.85497	16034
215.87637	15904
215.89778	15828
215.91919	15861
215.9406	15832
215.96201	15870
215.98341	15977
216.00482	15961
216.02623	16020
216.04762	15917
216.06903	15928
216.09044	15992
216.11185	15917
216.13326	15964
216.15466	16030
216.17607	16047
216.19748	16100
216.21887	16022
216.24028	16065
216.26169	16153
216.2831	16165
216.3045	16129
216.3259	16230
216.34731	16235
216.36871	16111
216.39012	16067
216.41151	16036
216.43292	15897
216.45433	15808
216.47572	15895
216.49713	16021
216.51854	16046
216.53993	15968
216.56134	15949
216.58273	16118
216.60414	16144
216.62555	16150
216.64694	16042
216.66835	16131
216.68974	16179
216.71115	16187
216.73254	16133
216.75395	16175
216.77534	16213
216.79675	16233
216.81815	16144
216.83955	16238
216.86095	16349
216.88235	16422
216.90375	16347
216.92514	16311
216.94655	16330
216.96794	16327
216.98935	16467
217.01074	16498
217.03214	16495
217.05354	16556
217.07494	16571
217.09633	16523
217.11774	16448
217.13913	16450
217.16052	16410
217.18192	16513
217.20332	16608
217.22472	16460
217.24611	16379
217.2675	16452
217.28891	16391
217.3103	16405
217.3317	16338
217.35309	16315
217.37448	16337
217.39587	16283
217.41727	16223
217.43867	16192
217.46007	16222
217.48146	16258
217.50285	16276
217.52425	16404
217.54564	16439
217.56703	16417
217.58842	16488
217.60982	16478
217.63121	16417
217.6526	16334
217.674	16277
217.69539	16317
217.71678	16296
217.73817	16190
217.75957	16161
217.78096	16204
217.80235	16144
217.82373	16203
217.84512	16134
217.86652	16132
217.88791	16025
217.9093	16011
217.93069	15997
217.95209	16159
217.97346	16220
217.99486	16274
218.01625	16142
218.03764	16215
218.05902	16242
218.08041	16121
218.10181	16006
218.1232	16106
218.14458	16084
218.16597	16073
218.18736	15974
218.20874	15978
218.23013	16037
218.25153	16037
218.2729	15973
218.2943	16124
218.31567	16216
218.33707	16239
218.35846	16153
218.37984	16281
218.40123	16156
218.42261	16180
218.444	16271
218.46538	16357
218.48677	16455
218.50815	16524
218.52954	16354
218.55092	16371
218.57231	16345
218.59369	16300
218.61507	16259
218.63646	16270
218.65784	16280
218.67923	16138
218.70061	16236
218.72198	16195
218.74338	16199
218.76476	16050
218.78613	15925
218.80753	15973
218.8289	16003
218.85028	15995
218.87166	16031
218.89305	16011
218.91443	15988
218.93581	15978
218.95718	16062
218.97858	16134
218.99995	16118
219.02133	16141
219.04271	16070
219.06409	16045
219.08546	16072
219.10686	15952
219.12823	16025
219.14961	15930
219.17099	15901
219.19237	15790
219.21375	15800
219.23512	15933
219.2565	15883
219.27788	15821
219.29926	15845
219.32063	15823
219.34201	15829
219.36339	15764
219.38477	15782
219.40614	15775
219.42752	15880
219.4489	15904
219.47028	15841
219.49165	15858
219.51303	15866
219.53439	15748
219.55577	15719
219.57715	15786
219.59853	15732
219.6199	15775
219.64128	15746
219.66264	15728
219.68402	15719
219.7054	15643
219.72678	15730
219.74814	15857
219.76952	15917
219.79089	15854
219.81227	15886
219.83363	15751
219.85501	15703
219.87639	15680
219.89775	15750
219.91913	15856
219.94051	15984
219.96187	15964
219.98325	15891
220.00461	15905
220.02599	16008
220.04735	15911
220.06873	15965
220.0901	15923
220.11147	15873
220.13284	15835
220.15421	15836
220.17558	15890
220.19695	15887
220.21832	15853
220.23969	15792
220.26105	15757
220.28242	15737
220.30379	15726
220.32516	15775
220.34653	15792
220.36789	15739
220.38927	15840
220.41063	15879
220.43199	15970
220.45337	15940
220.47473	15907
220.49609	15900
220.51747	15842
220.53883	15791
220.5602	15709
220.58156	15726
220.60294	15803
220.6243	15835
220.64566	15704
220.66702	15646
220.68839	15706
220.70976	15855
220.73112	15860
220.75249	15832
220.77385	15897
220.79521	15752
220.81657	15717
220.83794	15593
220.8593	15577
220.88066	15601
220.90202	15637
220.92339	15695
220.94475	15691
220.96611	15642
220.98747	15621
221.00883	15558
221.0302	15479
221.05156	15430
221.07292	15468
221.09428	15581
221.11565	15580
221.13701	15645
221.15837	15483
221.17973	15519
221.2011	15534
221.22246	15594
221.2438	15590
221.26517	15552
221.28653	15624
221.30789	15640
221.32925	15488
221.3506	15445
221.37196	15477
221.39333	15464
221.41469	15499
221.43604	15550
221.4574	15668
221.47876	15706
221.50011	15727
221.52147	15740
221.54283	15751
221.56418	15841
221.58554	15852
221.6069	15870
221.62825	15993
221.64961	15974
221.67096	15867
221.69232	15796
221.71368	15735
221.73503	15767
221.75639	15737
221.77774	15803
221.7991	15937
221.82045	15858
221.84181	15771
221.86316	15755
221.88451	15725
221.90587	15715
221.92722	15751
221.94858	15784
221.96992	15843
221.99127	15837
222.01263	15821
222.03398	15749
222.05534	15784
222.07669	15865
222.09804	15813
222.11938	15953
222.14075	15993
222.16209	16040
222.18344	16050
222.2048	15873
222.22615	15788
222.2475	15722
222.26884	15720
222.29019	15739
222.31155	15807
222.3329	15766
222.35425	15660
222.3756	15724
222.39694	15722
222.41829	15811
222.43964	15866
222.46098	15880
222.48235	15928
222.50369	15899
222.52504	15869
222.54639	15835
222.56773	15855
222.58908	15766
222.61043	15812
222.63177	15787
222.65312	15965
222.67447	16023
222.69582	16032
222.71715	15906
222.73849	15906
222.75984	15876
222.78119	16010
222.80254	16049
222.82388	16161
222.84523	16200
222.86658	16190
222.88791	16225
222.90926	16135
222.9306	16212
222.95195	16176
222.9733	16327
222.99463	16333
223.01598	16248
223.03732	16242
223.05867	16198
223.08	16203
223.10135	16217
223.1227	16245
223.14403	16184
223.16537	16161
223.18672	16096
223.20805	16083
223.2294	16129
223.25073	16136
223.27208	16178
223.29343	16187
223.31476	16359
223.33611	16340
223.35744	16293
223.37878	16265
223.40012	16315
223.42146	16359
223.44279	16344
223.46414	16237
223.48547	16169
223.50682	16213
223.52815	16110
223.54948	16011
223.57083	15988
223.59216	16133
223.61349	15950
223.63484	15985
223.65617	15936
223.67752	15821
223.69885	15786
223.72018	15859
223.74152	15863
223.76286	16059
223.78419	16085
223.80553	16094
223.82686	16020
223.84821	16035
223.86954	15936
223.89087	15966
223.9122	16000
223.93353	16033
223.95488	16070
223.97621	16072
223.99754	16120
224.01888	16088
224.04021	16047
224.06154	16093
224.08287	16167
224.1042	16348
224.12553	16467
224.14687	16476
224.1682	16451
224.18953	16305
224.21086	16260
224.23219	16252
224.25352	16337
224.27486	16443
224.29619	16502
224.31752	16586
224.33885	16525
224.36018	16551
224.38152	16579
224.40285	16457
224.42418	16491
224.4455	16410
224.46683	16411
224.48816	16246
224.50949	16217
224.53082	16179
224.55214	16176
224.57347	16158
224.5948	16197
224.61613	16228
224.63745	16265
224.65878	16290
224.68011	16314
224.70145	16277
224.72276	16316
224.74409	16354
224.76541	16550
224.78674	16620
224.80807	16605
224.82939	16588
224.85072	16598
224.87204	16684
224.89337	16659
224.9147	16476
224.93602	16452
224.95735	16457
224.97867	16442
225	16370
225.02132	16440
225.04265	16544
225.06396	16616
225.08528	16639
225.10661	16715
225.12793	16769
225.14926	16729
225.17058	16588
225.19189	16651
225.21323	16681
225.23454	16706
225.25586	16759
225.27719	16798
225.29851	16746
225.31982	16769
225.34116	16631
225.36247	16655
225.38379	16680
225.40511	16684
225.42644	16698
225.44775	16783
225.46907	16740
225.49039	16657
225.5117	16701
225.53304	16754
225.55435	16816
225.57567	16804
225.59698	16761
225.6183	16819
225.63962	16784
225.66093	16765
225.68225	16788
225.70357	16817
225.72488	16862
225.7462	16931
225.76752	16848
225.78883	16944
225.81015	16960
225.83147	16978
225.85278	16996
225.8741	16975
225.89542	16976
225.91673	17022
225.93805	16987
225.95937	17023
225.98068	16998
226.00198	16945
226.0233	16959
226.04462	16901
226.06593	16939
226.08725	16979
226.10855	17076
226.12987	16996
226.15118	16928
226.1725	16968
226.1938	17126
226.21512	17064
226.23643	17016
226.25775	17104
226.27905	17118
226.30037	17067
226.32167	17150
226.34299	16981
226.3643	17050
226.3856	17081
226.40692	17132
226.42824	17151
226.44954	16980
226.47086	17096
226.49216	17096
226.51347	17139
226.53477	17038
226.55609	16975
226.57739	16950
226.59871	16930
226.62001	16704
226.64131	16593
226.66263	16620
226.68393	16615
226.70525	16565
226.72655	16620
226.74785	16643
226.76917	16645
226.79047	16583
226.81177	16592
226.83308	16539
226.85439	16542
226.87569	16560
