Date and Time:                Fri Oct 7 11:58:30.000 2022
Software Version:             4.31.30023.0
Temperature (C):              -40
Model:                        DU940P_BU2
Data Type:                    Counts
Acquisition Mode:             Single Scan
Trigger Mode:                 Internal
Exposure Time (secs):         2.2
Readout Mode:                 Full Vertical Binning
Horizontal binning:           1
Extended Dynamic Range:       off
Horizontally flipped:         false
Vertical Shift Speed (usecs): 14.51
Pixel Readout Rate (MHz):     3
Baseline Clamp:               ON
Clock Amplitude:              Normal
Output Amplifier:             High Capacity
Serial Number:                23634
Pre-Amplifier Gain:           1.000000
Spurious Noise Filter Mode:   No Filter
Photon counted:               false
Data Averaging Filter Mode:   No Filter
SR500i:
Serial Number:                
Wavelength (nm):              225
Grating Groove Density (l/mm):1199.47
Grating Blaze:                500
Output Flipper Port:          Direct
Accessory Output Port 1:      Off
Accessory Output Port 2:      Off
Accessory Output Port 3:      Off
Accessory Input Port:         On



203.08546	11769
203.10698	11223
203.12848	11327
203.14999	11310
203.17151	11309
203.19302	11409
203.21452	11493
203.23604	11533
203.25755	11491
203.27905	11546
203.30057	11550
203.32208	11606
203.34358	11737
203.3651	11895
203.38661	12153
203.40811	12466
203.42963	12585
203.45113	12510
203.47264	12486
203.49416	12500
203.51566	12361
203.53717	12321
203.55867	12262
203.58018	12200
203.60168	12109
203.6232	12120
203.6447	12091
203.66621	12103
203.68771	12033
203.70923	11878
203.73073	11837
203.75224	11772
203.77374	11662
203.79526	11700
203.81676	11665
203.83827	11696
203.85977	11652
203.88127	11719
203.90279	11690
203.92429	11704
203.94579	11714
203.9673	11727
203.9888	11681
204.01031	11700
204.03181	11699
204.05331	11733
204.07481	11710
204.09633	11796
204.11783	11835
204.13933	11807
204.16084	11805
204.18234	11713
204.20384	11675
204.22534	11693
204.24684	11703
204.26836	11739
204.28986	11745
204.31136	11746
204.33286	11732
204.35435	11691
204.37587	11652
204.39737	11744
204.41887	11708
204.44037	11697
204.46187	11670
204.48337	11685
204.50487	11677
204.52637	11658
204.54787	11643
204.56937	11627
204.59087	11649
204.61237	11665
204.63387	11700
204.65536	11754
204.67688	11741
204.69836	11676
204.71986	11686
204.74136	11658
204.76286	11674
204.78436	11741
204.80586	11738
204.82736	11720
204.84886	11772
204.87036	11732
204.89186	11788
204.91336	11844
204.93486	11821
204.95636	11881
204.97784	11886
204.99934	11823
205.02084	11882
205.04234	11855
205.06384	11832
205.08534	11793
205.10683	11922
205.12833	11927
205.14983	11959
205.17133	11958
205.19281	11949
205.21431	11991
205.23581	12032
205.25731	12039
205.27879	12072
205.30029	12108
205.32179	12092
205.34328	12121
205.36478	12195
205.38628	12275
205.40776	12288
205.42926	12183
205.45074	12213
205.47224	12196
205.49374	12233
205.51523	12259
205.53673	12324
205.55821	12314
205.57971	12311
205.6012	12394
205.6227	12421
205.6442	12430
205.66568	12434
205.68718	12526
205.70866	12542
205.73015	12576
205.75165	12609
205.77313	12573
205.79463	12629
205.81612	12762
205.83762	12775
205.8591	12737
205.88058	12918
205.90208	12971
205.92357	13045
205.94507	13125
205.96655	13303
205.98804	13362
206.00954	13362
206.03102	13344
206.05251	13244
206.07401	13196
206.09549	13129
206.11697	13009
206.13846	12859
206.15996	12777
206.18144	12644
206.20293	12564
206.22441	12568
206.24591	12523
206.2674	12529
206.28888	12571
206.31036	12602
206.33185	12583
206.35335	12660
206.37483	12623
206.39632	12698
206.4178	12717
206.43929	12686
206.46077	12730
206.48225	12696
206.50374	12623
206.52522	12538
206.54672	12593
206.56821	12536
206.58969	12558
206.61118	12621
206.63266	12579
206.65414	12653
206.67563	12651
206.69711	12678
206.7186	12602
206.74008	12570
206.76157	12627
206.78304	12628
206.80452	12619
206.826	12623
206.84749	12625
206.86897	12668
206.89046	12652
206.91194	12700
206.93343	12627
206.95491	12641
206.97638	12640
206.99786	12734
207.01935	12674
207.04083	12672
207.06232	12671
207.0838	12713
207.10527	12757
207.12675	12768
207.14824	12671
207.16972	12741
207.19119	12727
207.21268	12702
207.23416	12662
207.25563	12676
207.27711	12729
207.2986	12693
207.32007	12766
207.34155	12813
207.36304	12800
207.38451	12926
207.40599	12874
207.42747	12931
207.44894	12917
207.47043	12902
207.4919	12858
207.51338	12888
207.53487	12835
207.55634	12864
207.57782	12950
207.59929	13012
207.62077	12988
207.64224	12963
207.66373	12950
207.6852	13028
207.70668	13008
207.72815	12943
207.74962	13048
207.7711	13176
207.79257	13209
207.81406	13225
207.83553	13159
207.85701	13189
207.87848	13167
207.89995	13134
207.92143	13151
207.9429	13152
207.96437	13177
207.98586	13170
208.00732	13195
208.02879	13230
208.05028	13178
208.07175	13236
208.09322	13261
208.11469	13296
208.13617	13327
208.15764	13387
208.17911	13238
208.20058	13279
208.22205	13267
208.24353	13274
208.265	13351
208.28647	13427
208.30794	13434
208.32941	13516
208.35088	13482
208.37236	13477
208.39383	13468
208.4153	13481
208.43677	13448
208.45824	13438
208.47971	13404
208.50117	13420
208.52264	13353
208.54411	13428
208.56558	13383
208.58705	13370
208.60852	13319
208.62999	13277
208.65146	13206
208.67293	13257
208.6944	13209
208.71587	13262
208.73734	13290
208.7588	13293
208.78027	13355
208.80174	13382
208.82321	13447
208.84467	13356
208.86613	13335
208.8876	13309
208.90907	13331
208.93054	13213
208.95201	13241
208.97346	13216
208.99493	13186
209.0164	13153
209.03787	13201
209.05934	13202
209.0808	13203
209.10226	13148
209.12373	13120
209.1452	13160
209.16666	13066
209.18813	13121
209.20959	13172
209.23105	13285
209.25252	13304
209.27399	13221
209.29544	13225
209.31691	13216
209.33836	13213
209.35983	13220
209.3813	13293
209.40276	13196
209.42422	13248
209.44568	13318
209.46715	13218
209.4886	13184
209.51007	13191
209.53152	13228
209.55299	13232
209.57445	13375
209.59592	13419
209.61737	13340
209.63884	13318
209.66029	13313
209.68176	13291
209.70322	13236
209.72469	13376
209.74614	13412
209.76759	13424
209.78906	13457
209.81052	13407
209.83197	13364
209.85344	13423
209.87489	13403
209.89635	13471
209.91782	13386
209.93927	13452
209.96072	13413
209.98219	13374
210.00365	13422
210.0251	13467
210.04655	13442
210.06802	13439
210.08948	13570
210.11093	13521
210.13239	13492
210.15384	13493
210.17531	13522
210.19676	13507
210.21822	13598
210.23967	13646
210.26112	13683
210.28258	13741
210.30403	13704
210.32549	13745
210.34695	13824
210.36841	13729
210.38986	13761
210.41132	13686
210.43277	13707
210.45422	13725
210.47568	13810
210.49713	13820
210.51859	13874
210.54004	13873
210.56149	13831
210.58295	13844
210.6044	13842
210.62585	13869
210.64729	13977
210.66875	13951
210.6902	13989
210.71165	14027
210.73311	14000
210.75456	14047
210.77602	14065
210.79747	14151
210.81891	14146
210.84036	14123
210.86182	14177
210.88327	14179
210.90472	14138
210.92616	14151
210.94762	14184
210.96907	14242
210.99052	14242
211.01196	14237
211.03342	14290
211.05487	14342
211.07631	14320
211.09776	14257
211.11922	14289
211.14066	14194
211.16211	14202
211.18356	14266
211.205	14283
211.22646	14281
211.24791	14219
211.26935	14175
211.2908	14126
211.31224	14113
211.33369	14051
211.35513	14144
211.37659	14223
211.39803	14183
211.41948	14104
211.44092	14132
211.46237	14181
211.48381	14164
211.50526	14204
211.5267	14263
211.54816	14242
211.5696	14283
211.59103	14323
211.61249	14246
211.63393	14302
211.65538	14404
211.67682	14338
211.69826	14382
211.71971	14330
211.74115	14352
211.76259	14364
211.78404	14412
211.80548	14314
211.82692	14257
211.84836	14227
211.86981	14083
211.89125	14164
211.91269	14202
211.93413	14222
211.95558	14213
211.97702	14266
211.99846	14232
212.0199	14235
212.04134	14162
212.06277	14149
212.08423	14150
212.10567	14195
212.12711	14240
212.14854	14297
212.16998	14302
212.19142	14319
212.21286	14297
212.2343	14329
212.25574	14364
212.27718	14349
212.29861	14371
212.32005	14354
212.34149	14344
212.36293	14328
212.38437	14305
212.40581	14365
212.42725	14364
212.44868	14375
212.47012	14358
212.49156	14479
212.513	14525
212.53444	14485
212.55588	14480
212.57732	14473
212.59874	14458
212.62018	14522
212.64162	14580
212.66306	14630
212.68449	14703
212.70593	14710
212.72736	14624
212.74879	14693
212.77023	14647
212.79167	14638
212.8131	14672
212.83453	14768
212.85597	14708
212.87741	14620
212.89883	14656
212.92027	14704
212.94171	14635
212.96313	14684
212.98457	14733
213.00601	14632
213.02744	14668
213.04887	14643
213.0703	14586
213.09174	14604
213.11317	14563
213.1346	14602
213.15604	14648
213.17746	14704
213.1989	14760
213.22032	14761
213.24176	14731
213.26318	14738
213.28462	14617
213.30605	14636
213.32748	14634
213.34891	14607
213.37033	14586
213.39177	14622
213.41319	14657
213.43463	14677
213.45605	14676
213.47748	14678
213.49892	14669
213.52034	14676
213.54176	14720
213.5632	14714
213.58463	14749
213.60605	14921
213.62749	14817
213.64891	14844
213.67033	14964
213.69177	15016
213.7132	14906
213.73462	14926
213.75604	14922
213.77747	14890
213.7989	14977
213.82033	14901
213.84175	14925
213.86317	14875
213.8846	14921
213.90602	14840
213.92744	14955
213.94888	15057
213.97031	15129
213.99173	15148
214.01315	15147
214.03458	15105
214.056	15025
214.07742	15106
214.09885	15239
214.12027	15285
214.14169	15356
214.16312	15375
214.18454	15387
214.20596	15358
214.22739	15307
214.24881	15309
214.27023	15234
214.29166	15280
214.31308	15272
214.33449	15096
214.35591	15148
214.37733	15154
214.39876	15151
214.42018	15101
214.4416	15080
214.46303	14984
214.48444	14948
214.50586	15017
214.52728	15002
214.54871	15016
214.57011	15066
214.59154	15100
214.61296	15201
214.63438	15204
214.65579	15211
214.67722	15159
214.69864	15131
214.72005	15081
214.74147	15039
214.76289	15120
214.7843	15021
214.80573	15037
214.82715	15013
214.84856	14928
214.86998	14953
214.89139	14966
214.91281	15030
214.93423	15006
214.95564	14976
214.97707	14964
214.99847	14891
215.0199	14826
215.04131	14959
215.06273	14949
215.08414	14918
215.10556	14946
215.12697	15041
215.14838	14913
215.1698	14914
215.19121	14866
215.21263	14872
215.23404	14873
215.25545	14888
215.27687	14868
215.29828	14871
215.31969	14844
215.34111	14717
215.36252	14794
215.38393	14896
215.40535	14977
215.42676	14999
215.44817	14993
215.46957	14942
215.491	14942
215.51241	14988
215.53381	14996
215.55522	15072
215.57663	15058
215.59805	15085
215.61946	15092
215.64087	15058
215.66228	15085
215.68369	15082
215.70509	15118
215.7265	15115
215.74792	15143
215.76933	15094
215.79074	15073
215.81215	15117
215.83356	15077
215.85497	15133
215.87637	15070
215.89778	15019
215.91919	14955
215.9406	15066
215.96201	15011
215.98341	15082
216.00482	15121
216.02623	15169
216.04762	15114
216.06903	15135
216.09044	15183
216.11185	15141
216.13326	15165
216.15466	15212
216.17607	15206
216.19748	15208
216.21887	15221
216.24028	15237
216.26169	15233
216.2831	15251
216.3045	15266
216.3259	15302
216.34731	15257
216.36871	15229
216.39012	15150
216.41151	15153
216.43292	15099
216.45433	15170
216.47572	15109
216.49713	15197
216.51854	15168
216.53993	15148
216.56134	15103
216.58273	15167
216.60414	15202
216.62555	15195
216.64694	15279
216.66835	15255
216.68974	15252
216.71115	15274
216.73254	15245
216.75395	15245
216.77534	15297
216.79675	15320
216.81815	15314
216.83955	15367
216.86095	15455
216.88235	15525
216.90375	15547
216.92514	15458
216.94655	15521
216.96794	15507
216.98935	15519
217.01074	15530
217.03214	15557
217.05354	15532
217.07494	15602
217.09633	15533
217.11774	15510
217.13913	15502
217.16052	15494
217.18192	15529
217.20332	15573
217.22472	15540
217.24611	15495
217.2675	15510
217.28891	15485
217.3103	15536
217.3317	15509
217.35309	15582
217.37448	15525
217.39587	15539
217.41727	15479
217.43867	15480
217.46007	15520
217.48146	15501
217.50285	15513
217.52425	15581
217.54564	15644
217.56703	15701
217.58842	15760
217.60982	15735
217.63121	15677
217.6526	15621
217.674	15506
217.69539	15561
217.71678	15546
217.73817	15511
217.75957	15583
217.78096	15535
217.80235	15666
217.82373	16019
217.84512	16713
217.86652	16224
217.88791	15711
217.9093	15501
217.93069	15659
217.95209	15693
217.97346	15667
217.99486	15637
218.01625	15629
218.03764	15630
218.05902	15800
218.08041	15947
218.10181	16277
218.1232	16073
218.14458	15996
218.16597	16006
218.18736	16041
218.20874	16097
218.23013	15822
218.25153	15619
218.2729	15736
218.2943	15924
218.31567	15905
218.33707	15900
218.35846	15872
218.37984	15792
218.40123	15606
218.42261	15705
218.444	15832
218.46538	15930
218.48677	16009
218.50815	15969
218.52954	15928
218.55092	16074
218.57231	16206
218.59369	15971
218.61507	16400
218.63646	16346
218.65784	15879
218.67923	15707
218.70061	15810
218.72198	16072
218.74338	16065
218.76476	15792
218.78613	15502
218.80753	15584
218.8289	15512
218.85028	15439
218.87166	15405
218.89305	15411
218.91443	15495
218.93581	15554
218.95718	15564
218.97858	15581
218.99995	15490
219.02133	15490
219.04271	15496
219.06409	15452
219.08546	15409
219.10686	15341
219.12823	15368
219.14961	15391
219.17099	15349
219.19237	15300
219.21375	15294
219.23512	15348
219.2565	15305
219.27788	15234
219.29926	15293
219.32063	15262
219.34201	15245
219.36339	15269
219.38477	15248
219.40614	15416
219.42752	15491
219.4489	15453
219.47028	15370
219.49165	15395
219.51303	15386
219.53439	15356
219.55577	15359
219.57715	15350
219.59853	15365
219.6199	15373
219.64128	15295
219.66264	15243
219.68402	15268
219.7054	15240
219.72678	15249
219.74814	15361
219.76952	15409
219.79089	15436
219.81227	15358
219.83363	15310
219.85501	15262
219.87639	15265
219.89775	15361
219.91913	15476
219.94051	15572
219.96187	15580
219.98325	15482
220.00461	15521
220.02599	15596
220.04735	15567
220.06873	15564
220.0901	15527
220.11147	15531
220.13284	15491
220.15421	15444
220.17558	15504
220.19695	15484
220.21832	15443
220.23969	15422
220.26105	15404
220.28242	15478
220.30379	15518
220.32516	15605
220.34653	15717
220.36789	15822
220.38927	15953
220.41063	16123
220.43199	16141
220.45337	16109
220.47473	16059
220.49609	16036
220.51747	15967
220.53883	15923
220.5602	15797
220.58156	15866
220.60294	15756
220.6243	15765
220.64566	15653
220.66702	15531
220.68839	15585
220.70976	15626
220.73112	15575
220.75249	15605
220.77385	15553
220.79521	15542
220.81657	15390
220.83794	15404
220.8593	15457
220.88066	15419
220.90202	15408
220.92339	15474
220.94475	15507
220.96611	15459
220.98747	15415
221.00883	15326
221.0302	15369
221.05156	15397
221.07292	15391
221.09428	15423
221.11565	15454
221.13701	15464
221.15837	15421
221.17973	15376
221.2011	15476
221.22246	15471
221.2438	15540
221.26517	15516
221.28653	15549
221.30789	15523
221.32925	15440
221.3506	15487
221.37196	15412
221.39333	15521
221.41469	15394
221.43604	15385
221.4574	15454
221.47876	15458
221.50011	15407
221.52147	15457
221.54283	15429
221.56418	15506
221.58554	15450
221.6069	15343
221.62825	15396
221.64961	15433
221.67096	15379
221.69232	15383
221.71368	15320
221.73503	15309
221.75639	15285
221.77774	15371
221.7991	15433
221.82045	15439
221.84181	15435
221.86316	15392
221.88451	15501
221.90587	15466
221.92722	15493
221.94858	15533
221.96992	15570
221.99127	15568
222.01263	15578
222.03398	15527
222.05534	15622
222.07669	15692
222.09804	15606
222.11938	15667
222.14075	15773
222.16209	15795
222.18344	15680
222.2048	15568
222.22615	15506
222.2475	15384
222.26884	15395
222.29019	15417
222.31155	15472
222.3329	15542
222.35425	15393
222.3756	15455
222.39694	15448
222.41829	15501
222.43964	15478
222.46098	15615
222.48235	15599
222.50369	15621
222.52504	15519
222.54639	15538
222.56773	15505
222.58908	15574
222.61043	15567
222.63177	15587
222.65312	15680
222.67447	15812
222.69582	15799
222.71715	15706
222.73849	15674
222.75984	15714
222.78119	15746
222.80254	15723
222.82388	15790
222.84523	15907
222.86658	15872
222.88791	15870
222.90926	15842
222.9306	15869
222.95195	15878
222.9733	15896
222.99463	15963
223.01598	15993
223.03732	15944
223.05867	15925
223.08	15998
223.10135	15981
223.1227	16035
223.14403	16112
223.16537	16118
223.18672	16027
223.20805	15993
223.2294	16042
223.25073	15973
223.27208	16047
223.29343	15968
223.31476	16050
223.33611	16019
223.35744	16042
223.37878	16070
223.40012	16097
223.42146	15970
223.44279	16048
223.46414	15878
223.48547	15908
223.50682	15914
223.52815	15860
223.54948	15815
223.57083	15890
223.59216	15937
223.61349	15989
223.63484	15954
223.65617	15871
223.67752	15946
223.69885	15948
223.72018	15935
223.74152	16098
223.76286	16228
223.78419	16293
223.80553	16196
223.82686	16153
223.84821	16181
223.86954	16138
223.89087	16120
223.9122	16117
223.93353	16109
223.95488	16146
223.97621	16040
223.99754	15977
224.01888	15938
224.04021	15876
224.06154	15792
224.08287	15872
224.1042	15958
224.12553	16053
224.14687	16017
224.1682	15924
224.18953	15954
224.21086	15842
224.23219	15847
224.25352	15948
224.27486	16056
224.29619	16190
224.31752	16152
224.33885	16078
224.36018	16183
224.38152	16174
224.40285	16129
224.42418	16139
224.4455	16201
224.46683	16135
224.48816	16046
224.50949	16013
224.53082	15966
224.55214	15890
224.57347	15858
224.5948	15875
224.61613	15957
224.63745	15907
224.65878	16025
224.68011	15947
224.70145	15986
224.72276	15990
224.74409	16053
224.76541	16131
224.78674	16226
224.80807	16267
224.82939	16221
224.85072	16271
224.87204	16323
224.89337	16261
224.9147	16086
224.93602	16185
224.95735	16184
224.97867	16064
225	16042
225.02132	16102
225.04265	16205
225.06396	16317
225.08528	16363
225.10661	16306
225.12793	16331
225.14926	16332
225.17058	16305
225.19189	16336
225.21323	16415
225.23454	16437
225.25586	16503
225.27719	16536
225.29851	16479
225.31982	16506
225.34116	16365
225.36247	16444
225.38379	16432
225.40511	16363
225.42644	16466
225.44775	16331
225.46907	16365
225.49039	16327
225.5117	16352
225.53304	16455
225.55435	16488
225.57567	16535
225.59698	16473
225.6183	16495
225.63962	16473
225.66093	16501
225.68225	16536
225.70357	16600
225.72488	16600
225.7462	16646
225.76752	16604
225.78883	16664
225.81015	16628
225.83147	16636
225.85278	16579
225.8741	16643
225.89542	16715
225.91673	16639
225.93805	16661
225.95937	16681
225.98068	16660
226.00198	16639
226.0233	16597
226.04462	16598
226.06593	16635
226.08725	16681
226.10855	16753
226.12987	16620
226.15118	16717
226.1725	16691
226.1938	16801
226.21512	16836
226.23643	16870
226.25775	16895
226.27905	16883
226.30037	16829
226.32167	16794
226.34299	16785
226.3643	16778
226.3856	16779
226.40692	16806
226.42824	16731
226.44954	16650
226.47086	16709
226.49216	16682
226.51347	16675
226.53477	16631
226.55609	16644
226.57739	16542
226.59871	16591
226.62001	16425
226.64131	16358
226.66263	16412
226.68393	16389
226.70525	16449
226.72655	16442
226.74785	16581
226.76917	16518
226.79047	16432
226.81177	16469
226.83308	16431
226.85439	16414
226.87569	16410
