Date and Time:                Fri Oct 7 11:58:38.000 2022
Software Version:             4.31.30023.0
Temperature (C):              -40
Model:                        DU940P_BU2
Data Type:                    Counts
Acquisition Mode:             Single Scan
Trigger Mode:                 Internal
Exposure Time (secs):         2.2
Readout Mode:                 Full Vertical Binning
Horizontal binning:           1
Extended Dynamic Range:       off
Horizontally flipped:         false
Vertical Shift Speed (usecs): 14.51
Pixel Readout Rate (MHz):     3
Baseline Clamp:               ON
Clock Amplitude:              Normal
Output Amplifier:             High Capacity
Serial Number:                23634
Pre-Amplifier Gain:           1.000000
Spurious Noise Filter Mode:   No Filter
Photon counted:               false
Data Averaging Filter Mode:   No Filter
SR500i:
Serial Number:                
Wavelength (nm):              225
Grating Groove Density (l/mm):1199.47
Grating Blaze:                500
Output Flipper Port:          Direct
Accessory Output Port 1:      Off
Accessory Output Port 2:      Off
Accessory Output Port 3:      Off
Accessory Input Port:         On



203.08546	11828
203.10698	11243
203.12848	11345
203.14999	11256
203.17151	11329
203.19302	11404
203.21452	11486
203.23604	11559
203.25755	11555
203.27905	11545
203.30057	11570
203.32208	11588
203.34358	11678
203.3651	11938
203.38661	12172
203.40811	12387
203.42963	12619
203.45113	12574
203.47264	12513
203.49416	12511
203.51566	12416
203.53717	12365
203.55867	12291
203.58018	12170
203.60168	12166
203.6232	12102
203.6447	12064
203.66621	12128
203.68771	12060
203.70923	11889
203.73073	11794
203.75224	11823
203.77374	11678
203.79526	11705
203.81676	11699
203.83827	11670
203.85977	11672
203.88127	11710
203.90279	11736
203.92429	11763
203.94579	11752
203.9673	11726
203.9888	11730
204.01031	11716
204.03181	11694
204.05331	11768
204.07481	11805
204.09633	11709
204.11783	11799
204.13933	11787
204.16084	11758
204.18234	11696
204.20384	11707
204.22534	11721
204.24684	11740
204.26836	11713
204.28986	11666
204.31136	11728
204.33286	11779
204.35435	11771
204.37587	11662
204.39737	11705
204.41887	11687
204.44037	11747
204.46187	11767
204.48337	11672
204.50487	11690
204.52637	11669
204.54787	11613
204.56937	11631
204.59087	11639
204.61237	11702
204.63387	11801
204.65536	11711
204.67688	11717
204.69836	11728
204.71986	11706
204.74136	11706
204.76286	11754
204.78436	11688
204.80586	11758
204.82736	11709
204.84886	11759
204.87036	11737
204.89186	11762
204.91336	11773
204.93486	11877
204.95636	11852
204.97784	11885
204.99934	11854
205.02084	11839
205.04234	11842
205.06384	11888
205.08534	11863
205.10683	11910
205.12833	11967
205.14983	11986
205.17133	11947
205.19281	12002
205.21431	12038
205.23581	12039
205.25731	12058
205.27879	12143
205.30029	12056
205.32179	12199
205.34328	12168
205.36478	12187
205.38628	12230
205.40776	12254
205.42926	12241
205.45074	12254
205.47224	12207
205.49374	12247
205.51523	12264
205.53673	12316
205.55821	12343
205.57971	12324
205.6012	12368
205.6227	12463
205.6442	12484
205.66568	12441
205.68718	12501
205.70866	12582
205.73015	12569
205.75165	12545
205.77313	12581
205.79463	12626
205.81612	12737
205.83762	12709
205.8591	12754
205.88058	12933
205.90208	12976
205.92357	13053
205.94507	13245
205.96655	13294
205.98804	13345
206.00954	13404
206.03102	13313
206.05251	13227
206.07401	13187
206.09549	13129
206.11697	12992
206.13846	12922
206.15996	12840
206.18144	12651
206.20293	12609
206.22441	12537
206.24591	12574
206.2674	12563
206.28888	12597
206.31036	12575
206.33185	12620
206.35335	12651
206.37483	12658
206.39632	12735
206.4178	12739
206.43929	12723
206.46077	12722
206.48225	12678
206.50374	12593
206.52522	12573
206.54672	12600
206.56821	12620
206.58969	12604
206.61118	12618
206.63266	12570
206.65414	12652
206.67563	12740
206.69711	12678
206.7186	12701
206.74008	12622
206.76157	12623
206.78304	12622
206.80452	12678
206.826	12663
206.84749	12647
206.86897	12639
206.89046	12721
206.91194	12751
206.93343	12670
206.95491	12645
206.97638	12637
206.99786	12753
207.01935	12696
207.04083	12712
207.06232	12708
207.0838	12730
207.10527	12808
207.12675	12795
207.14824	12740
207.16972	12769
207.19119	12739
207.21268	12676
207.23416	12690
207.25563	12661
207.27711	12745
207.2986	12785
207.32007	12786
207.34155	12846
207.36304	12813
207.38451	12901
207.40599	12945
207.42747	12947
207.44894	12961
207.47043	12919
207.4919	12945
207.51338	12902
207.53487	12920
207.55634	12905
207.57782	12967
207.59929	13001
207.62077	13050
207.64224	12999
207.66373	13039
207.6852	13039
207.70668	12989
207.72815	13018
207.74962	13069
207.7711	13221
207.79257	13169
207.81406	13176
207.83553	13171
207.85701	13132
207.87848	13172
207.89995	13108
207.92143	13111
207.9429	13154
207.96437	13250
207.98586	13210
208.00732	13170
208.02879	13183
208.05028	13183
208.07175	13137
208.09322	13258
208.11469	13365
208.13617	13349
208.15764	13352
208.17911	13326
208.20058	13329
208.22205	13299
208.24353	13326
208.265	13399
208.28647	13503
208.30794	13510
208.32941	13475
208.35088	13449
208.37236	13485
208.39383	13469
208.4153	13470
208.43677	13497
208.45824	13441
208.47971	13486
208.50117	13430
208.52264	13353
208.54411	13454
208.56558	13444
208.58705	13403
208.60852	13316
208.62999	13298
208.65146	13285
208.67293	13214
208.6944	13255
208.71587	13303
208.73734	13258
208.7588	13314
208.78027	13331
208.80174	13364
208.82321	13393
208.84467	13321
208.86613	13340
208.8876	13292
208.90907	13328
208.93054	13248
208.95201	13211
208.97346	13240
208.99493	13189
209.0164	13197
209.03787	13174
209.05934	13205
209.0808	13212
209.10226	13163
209.12373	13165
209.1452	13140
209.16666	13114
209.18813	13116
209.20959	13223
209.23105	13283
209.25252	13333
209.27399	13297
209.29544	13264
209.31691	13270
209.33836	13275
209.35983	13164
209.3813	13248
209.40276	13221
209.42422	13303
209.44568	13293
209.46715	13259
209.4886	13283
209.51007	13227
209.53152	13219
209.55299	13260
209.57445	13374
209.59592	13398
209.61737	13384
209.63884	13316
209.66029	13328
209.68176	13314
209.70322	13313
209.72469	13382
209.74614	13395
209.76759	13421
209.78906	13394
209.81052	13344
209.83197	13400
209.85344	13363
209.87489	13416
209.89635	13467
209.91782	13484
209.93927	13455
209.96072	13385
209.98219	13440
210.00365	13384
210.0251	13450
210.04655	13501
210.06802	13472
210.08948	13550
210.11093	13533
210.13239	13520
210.15384	13477
210.17531	13507
210.19676	13569
210.21822	13571
210.23967	13689
210.26112	13688
210.28258	13727
210.30403	13708
210.32549	13703
210.34695	13820
210.36841	13787
210.38986	13774
210.41132	13724
210.43277	13696
210.45422	13738
210.47568	13773
210.49713	13873
210.51859	13902
210.54004	13909
210.56149	13848
210.58295	13886
210.6044	13915
210.62585	13865
210.64729	13933
210.66875	14019
210.6902	14049
210.71165	14064
210.73311	14108
210.75456	14084
210.77602	14154
210.79747	14131
210.81891	14203
210.84036	14210
210.86182	14204
210.88327	14140
210.90472	14172
210.92616	14153
210.94762	14173
210.96907	14213
210.99052	14236
211.01196	14242
211.03342	14317
211.05487	14310
211.07631	14329
211.09776	14274
211.11922	14236
211.14066	14214
211.16211	14266
211.18356	14215
211.205	14239
211.22646	14299
211.24791	14241
211.26935	14151
211.2908	14177
211.31224	14099
211.33369	14074
211.35513	14177
211.37659	14213
211.39803	14190
211.41948	14094
211.44092	14098
211.46237	14198
211.48381	14163
211.50526	14207
211.5267	14243
211.54816	14337
211.5696	14255
211.59103	14221
211.61249	14253
211.63393	14374
211.65538	14327
211.67682	14303
211.69826	14337
211.71971	14444
211.74115	14382
211.76259	14377
211.78404	14378
211.80548	14376
211.82692	14289
211.84836	14242
211.86981	14176
211.89125	14158
211.91269	14213
211.93413	14211
211.95558	14164
211.97702	14272
211.99846	14217
212.0199	14176
212.04134	14141
212.06277	14191
212.08423	14171
212.10567	14161
212.12711	14273
212.14854	14363
212.16998	14333
212.19142	14270
212.21286	14284
212.2343	14327
212.25574	14421
212.27718	14350
212.29861	14314
212.32005	14366
212.34149	14372
212.36293	14319
212.38437	14304
212.40581	14342
212.42725	14368
212.44868	14352
212.47012	14426
212.49156	14506
212.513	14563
212.53444	14522
212.55588	14456
212.57732	14478
212.59874	14427
212.62018	14560
212.64162	14569
212.66306	14681
212.68449	14704
212.70593	14693
212.72736	14640
212.74879	14660
212.77023	14624
212.79167	14631
212.8131	14646
212.83453	14773
212.85597	14688
212.87741	14640
212.89883	14672
212.92027	14705
212.94171	14689
212.96313	14663
212.98457	14678
213.00601	14657
213.02744	14632
213.04887	14645
213.0703	14624
213.09174	14579
213.11317	14588
213.1346	14585
213.15604	14739
213.17746	14766
213.1989	14775
213.22032	14807
213.24176	14759
213.26318	14717
213.28462	14707
213.30605	14676
213.32748	14629
213.34891	14633
213.37033	14560
213.39177	14608
213.41319	14648
213.43463	14751
213.45605	14696
213.47748	14720
213.49892	14680
213.52034	14606
213.54176	14702
213.5632	14698
213.58463	14796
213.60605	14855
213.62749	14916
213.64891	14966
213.67033	14946
213.69177	15012
213.7132	14960
213.73462	14892
213.75604	14959
213.77747	14958
213.7989	14937
213.82033	14936
213.84175	14929
213.86317	14912
213.8846	14861
213.90602	14882
213.92744	14994
213.94888	15132
213.97031	15116
213.99173	15117
214.01315	15169
214.03458	15142
214.056	15064
214.07742	15157
214.09885	15246
214.12027	15316
214.14169	15356
214.16312	15397
214.18454	15394
214.20596	15373
214.22739	15323
214.24881	15257
214.27023	15252
214.29166	15281
214.31308	15229
214.33449	15221
214.35591	15132
214.37733	15236
214.39876	15154
214.42018	15068
214.4416	15033
214.46303	15002
214.48444	14938
214.50586	14982
214.52728	15103
214.54871	15094
214.57011	15089
214.59154	15120
214.61296	15193
214.63438	15235
214.65579	15189
214.67722	15153
214.69864	15129
214.72005	15098
214.74147	15101
214.76289	15141
214.7843	15031
214.80573	15087
214.82715	14980
214.84856	14969
214.86998	14975
214.89139	14942
214.91281	15030
214.93423	14966
214.95564	15034
214.97707	15014
214.99847	14946
215.0199	14874
215.04131	14883
215.06273	15038
215.08414	14986
215.10556	14948
215.12697	14926
215.14838	14992
215.1698	14913
215.19121	14859
215.21263	14924
215.23404	14836
215.25545	14869
215.27687	14947
215.29828	14863
215.31969	14883
215.34111	14847
215.36252	14792
215.38393	14949
215.40535	15008
215.42676	15043
215.44817	14960
215.46957	14938
215.491	14954
215.51241	15012
215.53381	14996
215.55522	15036
215.57663	15140
215.59805	15123
215.61946	15095
215.64087	15083
215.66228	15065
215.68369	15134
215.70509	15106
215.7265	15150
215.74792	15139
215.76933	15125
215.79074	15070
215.81215	15148
215.83356	15201
215.85497	15151
215.87637	15065
215.89778	15066
215.91919	15028
215.9406	15045
215.96201	15100
215.98341	15089
216.00482	15121
216.02623	15158
216.04762	15153
216.06903	15181
216.09044	15187
216.11185	15200
216.13326	15138
216.15466	15249
216.17607	15254
216.19748	15268
216.21887	15175
216.24028	15277
216.26169	15314
216.2831	15337
216.3045	15323
216.3259	15322
216.34731	15311
216.36871	15259
216.39012	15177
216.41151	15110
216.43292	15038
216.45433	15068
216.47572	15113
216.49713	15176
216.51854	15176
216.53993	15205
216.56134	15141
216.58273	15186
216.60414	15257
216.62555	15235
216.64694	15266
216.66835	15333
216.68974	15313
216.71115	15273
216.73254	15293
216.75395	15297
216.77534	15306
216.79675	15331
216.81815	15363
216.83955	15420
216.86095	15427
216.88235	15546
216.90375	15568
216.92514	15468
216.94655	15529
216.96794	15550
216.98935	15519
217.01074	15569
217.03214	15594
217.05354	15587
217.07494	15576
217.09633	15563
217.11774	15509
217.13913	15507
217.16052	15466
217.18192	15588
217.20332	15658
217.22472	15528
217.24611	15496
217.2675	15516
217.28891	15571
217.3103	15588
217.3317	15551
217.35309	15636
217.37448	15613
217.39587	15561
217.41727	15415
217.43867	15494
217.46007	15491
217.48146	15504
217.50285	15503
217.52425	15598
217.54564	15685
217.56703	15706
217.58842	15786
217.60982	15797
217.63121	15644
217.6526	15661
217.674	15575
217.69539	15558
217.71678	15559
217.73817	15499
217.75957	15513
217.78096	15572
217.80235	15651
217.82373	16054
217.84512	16680
217.86652	16177
217.88791	15729
217.9093	15618
217.93069	15715
217.95209	15767
217.97346	15691
217.99486	15676
218.01625	15601
218.03764	15678
218.05902	15797
218.08041	15968
218.10181	16376
218.1232	16175
218.14458	15960
218.16597	16033
218.18736	16026
218.20874	16012
218.23013	15754
218.25153	15659
218.2729	15752
218.2943	15843
218.31567	15883
218.33707	15920
218.35846	15854
218.37984	15756
218.40123	15683
218.42261	15688
218.444	15846
218.46538	15997
218.48677	16090
218.50815	15908
218.52954	15887
218.55092	16077
218.57231	16203
218.59369	16084
218.61507	16490
218.63646	16447
218.65784	15929
218.67923	15823
218.70061	15850
218.72198	16048
218.74338	16105
218.76476	15751
218.78613	15650
218.80753	15564
218.8289	15508
218.85028	15445
218.87166	15482
218.89305	15441
218.91443	15411
218.93581	15497
218.95718	15475
218.97858	15540
218.99995	15555
219.02133	15493
219.04271	15463
219.06409	15508
219.08546	15422
219.10686	15377
219.12823	15423
219.14961	15414
219.17099	15380
219.19237	15320
219.21375	15270
219.23512	15274
219.2565	15317
219.27788	15294
219.29926	15266
219.32063	15286
219.34201	15232
219.36339	15279
219.38477	15327
219.40614	15360
219.42752	15449
219.4489	15468
219.47028	15429
219.49165	15457
219.51303	15372
219.53439	15382
219.55577	15334
219.57715	15287
219.59853	15300
219.6199	15356
219.64128	15301
219.66264	15329
219.68402	15245
219.7054	15223
219.72678	15311
219.74814	15453
219.76952	15433
219.79089	15409
219.81227	15375
219.83363	15294
219.85501	15300
219.87639	15337
219.89775	15373
219.91913	15524
219.94051	15558
219.96187	15584
219.98325	15468
220.00461	15496
220.02599	15581
220.04735	15613
220.06873	15569
220.0901	15536
220.11147	15528
220.13284	15528
220.15421	15509
220.17558	15518
220.19695	15514
220.21832	15515
220.23969	15502
220.26105	15430
220.28242	15501
220.30379	15552
220.32516	15626
220.34653	15768
220.36789	15774
220.38927	15947
220.41063	16019
220.43199	16190
220.45337	16080
220.47473	16071
220.49609	16033
220.51747	15927
220.53883	15936
220.5602	15888
220.58156	15824
220.60294	15854
220.6243	15756
220.64566	15573
220.66702	15588
220.68839	15652
220.70976	15582
220.73112	15591
220.75249	15583
220.77385	15590
220.79521	15539
220.81657	15447
220.83794	15444
220.8593	15398
220.88066	15320
220.90202	15418
220.92339	15458
220.94475	15487
220.96611	15461
220.98747	15423
221.00883	15348
221.0302	15370
221.05156	15386
221.07292	15417
221.09428	15456
221.11565	15454
221.13701	15397
221.15837	15452
221.17973	15389
221.2011	15491
221.22246	15528
221.2438	15589
221.26517	15607
221.28653	15528
221.30789	15503
221.32925	15514
221.3506	15405
221.37196	15505
221.39333	15508
221.41469	15419
221.43604	15406
221.4574	15486
221.47876	15487
221.50011	15522
221.52147	15535
221.54283	15515
221.56418	15439
221.58554	15436
221.6069	15411
221.62825	15418
221.64961	15445
221.67096	15401
221.69232	15352
221.71368	15294
221.73503	15342
221.75639	15305
221.77774	15460
221.7991	15456
221.82045	15410
221.84181	15452
221.86316	15426
221.88451	15532
221.90587	15504
221.92722	15452
221.94858	15507
221.96992	15553
221.99127	15583
222.01263	15558
222.03398	15541
222.05534	15578
222.07669	15562
222.09804	15576
222.11938	15636
222.14075	15692
222.16209	15769
222.18344	15721
222.2048	15581
222.22615	15484
222.2475	15430
222.26884	15351
222.29019	15426
222.31155	15458
222.3329	15426
222.35425	15469
222.3756	15469
222.39694	15460
222.41829	15499
222.43964	15546
222.46098	15559
222.48235	15554
222.50369	15549
222.52504	15620
222.54639	15587
222.56773	15602
222.58908	15614
222.61043	15527
222.63177	15567
222.65312	15760
222.67447	15800
222.69582	15776
222.71715	15714
222.73849	15705
222.75984	15725
222.78119	15785
222.80254	15764
222.82388	15782
222.84523	15883
222.86658	15889
222.88791	15917
222.90926	15897
222.9306	15878
222.95195	15902
222.9733	15913
222.99463	15991
223.01598	16008
223.03732	15966
223.05867	15904
223.08	15882
223.10135	16039
223.1227	16082
223.14403	16096
223.16537	16034
223.18672	16113
223.20805	16021
223.2294	16008
223.25073	15992
223.27208	15956
223.29343	16025
223.31476	16013
223.33611	16029
223.35744	16026
223.37878	16084
223.40012	16112
223.42146	16030
223.44279	16057
223.46414	15949
223.48547	15909
223.50682	15894
223.52815	15904
223.54948	15875
223.57083	15908
223.59216	15967
223.61349	15940
223.63484	16010
223.65617	15917
223.67752	16011
223.69885	16035
223.72018	16023
223.74152	16098
223.76286	16158
223.78419	16262
223.80553	16275
223.82686	16197
223.84821	16203
223.86954	16151
223.89087	16107
223.9122	16159
223.93353	16186
223.95488	16098
223.97621	16076
223.99754	16041
224.01888	15969
224.04021	15888
224.06154	15909
224.08287	15892
224.1042	15984
224.12553	16070
224.14687	16028
224.1682	15971
224.18953	15897
224.21086	15859
224.23219	15847
224.25352	15956
224.27486	16036
224.29619	16191
224.31752	16147
224.33885	16143
224.36018	16145
224.38152	16214
224.40285	16163
224.42418	16207
224.4455	16187
224.46683	16162
224.48816	16163
224.50949	16004
224.53082	16006
224.55214	15895
224.57347	15911
224.5948	15938
224.61613	15945
224.63745	15975
224.65878	15958
224.68011	15951
224.70145	16025
224.72276	15973
224.74409	16049
224.76541	16178
224.78674	16222
224.80807	16260
224.82939	16210
224.85072	16324
224.87204	16362
224.89337	16258
224.9147	16152
224.93602	16177
224.95735	16197
224.97867	16123
225	16060
225.02132	16201
225.04265	16246
225.06396	16287
225.08528	16323
225.10661	16335
225.12793	16340
225.14926	16313
225.17058	16320
225.19189	16403
225.21323	16446
225.23454	16488
225.25586	16495
225.27719	16485
225.29851	16542
225.31982	16503
225.34116	16459
225.36247	16439
225.38379	16446
225.40511	16430
225.42644	16446
225.44775	16400
225.46907	16386
225.49039	16415
225.5117	16412
225.53304	16489
225.55435	16500
225.57567	16572
225.59698	16549
225.6183	16558
225.63962	16470
225.66093	16488
225.68225	16505
225.70357	16580
225.72488	16601
225.7462	16682
225.76752	16642
225.78883	16620
225.81015	16620
225.83147	16619
225.85278	16684
225.8741	16682
225.89542	16676
225.91673	16704
225.93805	16648
225.95937	16628
225.98068	16674
226.00198	16696
226.0233	16619
226.04462	16585
226.06593	16671
226.08725	16705
226.10855	16694
226.12987	16672
226.15118	16742
226.1725	16731
226.1938	16823
226.21512	16873
226.23643	16837
226.25775	16836
226.27905	16888
226.30037	16798
226.32167	16826
226.34299	16803
226.3643	16809
226.3856	16778
226.40692	16858
226.42824	16755
226.44954	16639
226.47086	16732
226.49216	16783
226.51347	16665
226.53477	16656
226.55609	16625
226.57739	16616
226.59871	16562
226.62001	16449
226.64131	16409
226.66263	16416
226.68393	16368
226.70525	16405
226.72655	16424
226.74785	16481
226.76917	16464
226.79047	16438
226.81177	16464
226.83308	16463
226.85439	16483
226.87569	16440
