Date and Time:                Fri Oct 7 11:58:46.000 2022
Software Version:             4.31.30023.0
Temperature (C):              -40
Model:                        DU940P_BU2
Data Type:                    Counts
Acquisition Mode:             Single Scan
Trigger Mode:                 Internal
Exposure Time (secs):         2.2
Readout Mode:                 Full Vertical Binning
Horizontal binning:           1
Extended Dynamic Range:       off
Horizontally flipped:         false
Vertical Shift Speed (usecs): 14.51
Pixel Readout Rate (MHz):     3
Baseline Clamp:               ON
Clock Amplitude:              Normal
Output Amplifier:             High Capacity
Serial Number:                23634
Pre-Amplifier Gain:           1.000000
Spurious Noise Filter Mode:   No Filter
Photon counted:               false
Data Averaging Filter Mode:   No Filter
SR500i:
Serial Number:                
Wavelength (nm):              225
Grating Groove Density (l/mm):1199.47
Grating Blaze:                500
Output Flipper Port:          Direct
Accessory Output Port 1:      Off
Accessory Output Port 2:      Off
Accessory Output Port 3:      Off
Accessory Input Port:         On



203.08546	11755
203.10698	11277
203.12848	11331
203.14999	11319
203.17151	11243
203.19302	11438
203.21452	11524
203.23604	11476
203.25755	11514
203.27905	11580
203.30057	11615
203.32208	11598
203.34358	11643
203.3651	11947
203.38661	12141
203.40811	12416
203.42963	12569
203.45113	12558
203.47264	12562
203.49416	12532
203.51566	12400
203.53717	12363
203.55867	12269
203.58018	12224
203.60168	12101
203.6232	12143
203.6447	12140
203.66621	12080
203.68771	12004
203.70923	11918
203.73073	11866
203.75224	11779
203.77374	11731
203.79526	11704
203.81676	11674
203.83827	11668
203.85977	11703
203.88127	11669
203.90279	11705
203.92429	11702
203.94579	11684
203.9673	11728
203.9888	11713
204.01031	11730
204.03181	11723
204.05331	11757
204.07481	11815
204.09633	11780
204.11783	11779
204.13933	11844
204.16084	11726
204.18234	11692
204.20384	11730
204.22534	11727
204.24684	11747
204.26836	11736
204.28986	11661
204.31136	11752
204.33286	11694
204.35435	11755
204.37587	11736
204.39737	11718
204.41887	11733
204.44037	11699
204.46187	11720
204.48337	11694
204.50487	11686
204.52637	11646
204.54787	11634
204.56937	11615
204.59087	11615
204.61237	11724
204.63387	11754
204.65536	11724
204.67688	11780
204.69836	11724
204.71986	11716
204.74136	11650
204.76286	11731
204.78436	11693
204.80586	11718
204.82736	11758
204.84886	11723
204.87036	11717
204.89186	11763
204.91336	11784
204.93486	11899
204.95636	11877
204.97784	11925
204.99934	11903
205.02084	11882
205.04234	11876
205.06384	11859
205.08534	11896
205.10683	11935
205.12833	11942
205.14983	11980
205.17133	11898
205.19281	11944
205.21431	12060
205.23581	12066
205.25731	11995
205.27879	12065
205.30029	12075
205.32179	12121
205.34328	12155
205.36478	12172
205.38628	12294
205.40776	12223
205.42926	12193
205.45074	12194
205.47224	12203
205.49374	12223
205.51523	12269
205.53673	12338
205.55821	12333
205.57971	12349
205.6012	12364
205.6227	12444
205.6442	12454
205.66568	12450
205.68718	12508
205.70866	12561
205.73015	12549
205.75165	12517
205.77313	12589
205.79463	12665
205.81612	12749
205.83762	12740
205.8591	12779
205.88058	12945
205.90208	13008
205.92357	13074
205.94507	13172
205.96655	13304
205.98804	13319
206.00954	13418
206.03102	13326
206.05251	13253
206.07401	13180
206.09549	13144
206.11697	12955
206.13846	12858
206.15996	12710
206.18144	12643
206.20293	12590
206.22441	12578
206.24591	12543
206.2674	12551
206.28888	12617
206.31036	12611
206.33185	12601
206.35335	12586
206.37483	12671
206.39632	12703
206.4178	12720
206.43929	12727
206.46077	12756
206.48225	12712
206.50374	12645
206.52522	12661
206.54672	12586
206.56821	12555
206.58969	12643
206.61118	12630
206.63266	12615
206.65414	12623
206.67563	12629
206.69711	12709
206.7186	12649
206.74008	12599
206.76157	12623
206.78304	12640
206.80452	12613
206.826	12628
206.84749	12677
206.86897	12609
206.89046	12694
206.91194	12696
206.93343	12654
206.95491	12662
206.97638	12649
206.99786	12710
207.01935	12750
207.04083	12722
207.06232	12703
207.0838	12754
207.10527	12806
207.12675	12765
207.14824	12755
207.16972	12753
207.19119	12761
207.21268	12735
207.23416	12707
207.25563	12679
207.27711	12721
207.2986	12762
207.32007	12772
207.34155	12808
207.36304	12789
207.38451	12854
207.40599	12942
207.42747	12965
207.44894	12951
207.47043	12911
207.4919	12874
207.51338	12863
207.53487	12890
207.55634	12901
207.57782	12956
207.59929	13053
207.62077	12990
207.64224	12985
207.66373	13040
207.6852	12978
207.70668	12979
207.72815	13026
207.74962	13094
207.7711	13162
207.79257	13204
207.81406	13189
207.83553	13107
207.85701	13193
207.87848	13229
207.89995	13163
207.92143	13151
207.9429	13196
207.96437	13185
207.98586	13188
208.00732	13168
208.02879	13179
208.05028	13213
208.07175	13183
208.09322	13287
208.11469	13314
208.13617	13324
208.15764	13289
208.17911	13325
208.20058	13283
208.22205	13334
208.24353	13340
208.265	13356
208.28647	13477
208.30794	13459
208.32941	13478
208.35088	13445
208.37236	13500
208.39383	13463
208.4153	13452
208.43677	13448
208.45824	13427
208.47971	13401
208.50117	13384
208.52264	13347
208.54411	13412
208.56558	13449
208.58705	13320
208.60852	13367
208.62999	13344
208.65146	13272
208.67293	13251
208.6944	13238
208.71587	13264
208.73734	13257
208.7588	13297
208.78027	13368
208.80174	13402
208.82321	13394
208.84467	13355
208.86613	13328
208.8876	13279
208.90907	13287
208.93054	13287
208.95201	13216
208.97346	13283
208.99493	13202
209.0164	13134
209.03787	13146
209.05934	13191
209.0808	13229
209.10226	13176
209.12373	13053
209.1452	13145
209.16666	13108
209.18813	13139
209.20959	13164
209.23105	13227
209.25252	13318
209.27399	13318
209.29544	13205
209.31691	13277
209.33836	13179
209.35983	13217
209.3813	13275
209.40276	13264
209.42422	13261
209.44568	13307
209.46715	13277
209.4886	13276
209.51007	13162
209.53152	13275
209.55299	13264
209.57445	13371
209.59592	13413
209.61737	13360
209.63884	13355
209.66029	13252
209.68176	13380
209.70322	13336
209.72469	13371
209.74614	13405
209.76759	13436
209.78906	13411
209.81052	13378
209.83197	13395
209.85344	13389
209.87489	13423
209.89635	13462
209.91782	13438
209.93927	13438
209.96072	13424
209.98219	13412
210.00365	13463
210.0251	13488
210.04655	13444
210.06802	13496
210.08948	13560
210.11093	13521
210.13239	13546
210.15384	13448
210.17531	13530
210.19676	13604
210.21822	13573
210.23967	13619
210.26112	13696
210.28258	13688
210.30403	13753
210.32549	13803
210.34695	13791
210.36841	13788
210.38986	13758
210.41132	13647
210.43277	13704
210.45422	13700
210.47568	13799
210.49713	13912
210.51859	13940
210.54004	13872
210.56149	13855
210.58295	13839
210.6044	13882
210.62585	13912
210.64729	13984
210.66875	14008
210.6902	14016
210.71165	14039
210.73311	14034
210.75456	14111
210.77602	14107
210.79747	14122
210.81891	14168
210.84036	14170
210.86182	14185
210.88327	14163
210.90472	14190
210.92616	14135
210.94762	14233
210.96907	14149
210.99052	14206
211.01196	14259
211.03342	14271
211.05487	14321
211.07631	14307
211.09776	14268
211.11922	14268
211.14066	14229
211.16211	14187
211.18356	14210
211.205	14293
211.22646	14261
211.24791	14188
211.26935	14162
211.2908	14106
211.31224	14083
211.33369	14075
211.35513	14179
211.37659	14207
211.39803	14174
211.41948	14133
211.44092	14182
211.46237	14118
211.48381	14158
211.50526	14236
211.5267	14315
211.54816	14258
211.5696	14337
211.59103	14310
211.61249	14274
211.63393	14341
211.65538	14296
211.67682	14289
211.69826	14330
211.71971	14449
211.74115	14373
211.76259	14377
211.78404	14323
211.80548	14364
211.82692	14318
211.84836	14184
211.86981	14163
211.89125	14175
211.91269	14199
211.93413	14239
211.95558	14209
211.97702	14325
211.99846	14230
212.0199	14185
212.04134	14211
212.06277	14168
212.08423	14144
212.10567	14140
212.12711	14293
212.14854	14313
212.16998	14308
212.19142	14329
212.21286	14320
212.2343	14404
212.25574	14360
212.27718	14370
212.29861	14376
212.32005	14397
212.34149	14339
212.36293	14285
212.38437	14281
212.40581	14354
212.42725	14334
212.44868	14340
212.47012	14384
212.49156	14440
212.513	14583
212.53444	14485
212.55588	14507
212.57732	14462
212.59874	14479
212.62018	14495
212.64162	14574
212.66306	14628
212.68449	14672
212.70593	14647
212.72736	14653
212.74879	14623
212.77023	14655
212.79167	14605
212.8131	14671
212.83453	14768
212.85597	14729
212.87741	14669
212.89883	14666
212.92027	14704
212.94171	14686
212.96313	14693
212.98457	14696
213.00601	14673
213.02744	14622
213.04887	14569
213.0703	14607
213.09174	14591
213.11317	14573
213.1346	14593
213.15604	14678
213.17746	14799
213.1989	14754
213.22032	14750
213.24176	14760
213.26318	14716
213.28462	14699
213.30605	14619
213.32748	14620
213.34891	14590
213.37033	14615
213.39177	14636
213.41319	14666
213.43463	14705
213.45605	14676
213.47748	14717
213.49892	14602
213.52034	14679
213.54176	14747
213.5632	14740
213.58463	14787
213.60605	14911
213.62749	14858
213.64891	14893
213.67033	14951
213.69177	15025
213.7132	14974
213.73462	14906
213.75604	14926
213.77747	14912
213.7989	14935
213.82033	14928
213.84175	14876
213.86317	14899
213.8846	14882
213.90602	14908
213.92744	14938
213.94888	15126
213.97031	15168
213.99173	15125
214.01315	15114
214.03458	15128
214.056	15118
214.07742	15161
214.09885	15225
214.12027	15329
214.14169	15378
214.16312	15443
214.18454	15406
214.20596	15386
214.22739	15236
214.24881	15228
214.27023	15250
214.29166	15248
214.31308	15241
214.33449	15229
214.35591	15153
214.37733	15210
214.39876	15192
214.42018	15091
214.4416	15022
214.46303	15043
214.48444	14975
214.50586	15022
214.52728	15002
214.54871	15018
214.57011	15040
214.59154	15076
214.61296	15222
214.63438	15101
214.65579	15216
214.67722	15150
214.69864	15137
214.72005	15150
214.74147	15131
214.76289	15089
214.7843	15073
214.80573	15074
214.82715	15065
214.84856	14951
214.86998	14927
214.89139	14966
214.91281	15022
214.93423	14955
214.95564	14981
214.97707	14962
214.99847	14889
215.0199	14881
215.04131	14870
215.06273	14990
215.08414	14959
215.10556	14940
215.12697	15000
215.14838	14955
215.1698	14944
215.19121	14814
215.21263	14886
215.23404	14846
215.25545	14870
215.27687	14843
215.29828	14873
215.31969	14854
215.34111	14794
215.36252	14820
215.38393	14934
215.40535	15042
215.42676	14990
215.44817	15030
215.46957	14943
215.491	14922
215.51241	14982
215.53381	15003
215.55522	15019
215.57663	15084
215.59805	15142
215.61946	15070
215.64087	15110
215.66228	15105
215.68369	15120
215.70509	15174
215.7265	15150
215.74792	15147
215.76933	15119
215.79074	15095
215.81215	15114
215.83356	15175
215.85497	15163
215.87637	15075
215.89778	15027
215.91919	15017
215.9406	15063
215.96201	15026
215.98341	15122
216.00482	15158
216.02623	15150
216.04762	15206
216.06903	15187
216.09044	15195
216.11185	15165
216.13326	15133
216.15466	15210
216.17607	15217
216.19748	15149
216.21887	15281
216.24028	15291
216.26169	15252
216.2831	15309
216.3045	15272
216.3259	15318
216.34731	15350
216.36871	15220
216.39012	15182
216.41151	15152
216.43292	15048
216.45433	15081
216.47572	15111
216.49713	15149
216.51854	15242
216.53993	15183
216.56134	15139
216.58273	15204
216.60414	15287
216.62555	15236
216.64694	15246
216.66835	15275
216.68974	15288
216.71115	15301
216.73254	15227
216.75395	15259
216.77534	15326
216.79675	15383
216.81815	15380
216.83955	15348
216.86095	15409
216.88235	15494
216.90375	15521
216.92514	15487
216.94655	15478
216.96794	15531
216.98935	15502
217.01074	15553
217.03214	15598
217.05354	15578
217.07494	15573
217.09633	15612
217.11774	15551
217.13913	15489
217.16052	15492
217.18192	15563
217.20332	15594
217.22472	15563
217.24611	15496
217.2675	15500
217.28891	15578
217.3103	15522
217.3317	15562
217.35309	15587
217.37448	15591
217.39587	15558
217.41727	15482
217.43867	15484
217.46007	15440
217.48146	15484
217.50285	15516
217.52425	15585
217.54564	15685
217.56703	15645
217.58842	15753
217.60982	15752
217.63121	15704
217.6526	15660
217.674	15572
217.69539	15533
217.71678	15490
217.73817	15534
217.75957	15521
217.78096	15582
217.80235	15650
217.82373	15995
217.84512	16706
217.86652	16254
217.88791	15668
217.9093	15565
217.93069	15683
217.95209	15726
217.97346	15625
217.99486	15702
218.01625	15638
218.03764	15707
218.05902	15756
218.08041	15954
218.10181	16307
218.1232	16147
218.14458	16000
218.16597	15991
218.18736	16068
218.20874	16115
218.23013	15783
218.25153	15679
218.2729	15737
218.2943	15856
218.31567	15845
218.33707	15882
218.35846	15845
218.37984	15740
218.40123	15660
218.42261	15683
218.444	15783
218.46538	15948
218.48677	15993
218.50815	16021
218.52954	15942
218.55092	16089
218.57231	16207
218.59369	16037
218.61507	16511
218.63646	16490
218.65784	15946
218.67923	15727
218.70061	15858
218.72198	16098
218.74338	16062
218.76476	15792
218.78613	15595
218.80753	15517
218.8289	15482
218.85028	15420
218.87166	15449
218.89305	15481
218.91443	15473
218.93581	15535
218.95718	15569
218.97858	15558
218.99995	15521
219.02133	15508
219.04271	15533
219.06409	15477
219.08546	15461
219.10686	15423
219.12823	15341
219.14961	15410
219.17099	15359
219.19237	15298
219.21375	15314
219.23512	15375
219.2565	15333
219.27788	15346
219.29926	15278
219.32063	15261
219.34201	15269
219.36339	15268
219.38477	15274
219.40614	15385
219.42752	15487
219.4489	15495
219.47028	15410
219.49165	15401
219.51303	15426
219.53439	15341
219.55577	15342
219.57715	15348
219.59853	15402
219.6199	15257
219.64128	15305
219.66264	15232
219.68402	15308
219.7054	15180
219.72678	15255
219.74814	15431
219.76952	15464
219.79089	15365
219.81227	15419
219.83363	15278
219.85501	15249
219.87639	15286
219.89775	15358
219.91913	15492
219.94051	15575
219.96187	15529
219.98325	15506
220.00461	15551
220.02599	15602
220.04735	15588
220.06873	15474
220.0901	15534
220.11147	15553
220.13284	15460
220.15421	15499
220.17558	15504
220.19695	15508
220.21832	15538
220.23969	15445
220.26105	15519
220.28242	15557
220.30379	15542
220.32516	15622
220.34653	15762
220.36789	15785
220.38927	15929
220.41063	16099
220.43199	16233
220.45337	16095
220.47473	16098
220.49609	16027
220.51747	15997
220.53883	15909
220.5602	15883
220.58156	15822
220.60294	15755
220.6243	15733
220.64566	15635
220.66702	15566
220.68839	15605
220.70976	15637
220.73112	15688
220.75249	15630
220.77385	15579
220.79521	15560
220.81657	15456
220.83794	15412
220.8593	15438
220.88066	15352
220.90202	15427
220.92339	15472
220.94475	15543
220.96611	15481
220.98747	15448
221.00883	15402
221.0302	15353
221.05156	15417
221.07292	15446
221.09428	15446
221.11565	15465
221.13701	15442
221.15837	15444
221.17973	15399
221.2011	15554
221.22246	15565
221.2438	15582
221.26517	15512
221.28653	15464
221.30789	15516
221.32925	15462
221.3506	15479
221.37196	15440
221.39333	15557
221.41469	15455
221.43604	15466
221.4574	15397
221.47876	15472
221.50011	15517
221.52147	15482
221.54283	15489
221.56418	15417
221.58554	15406
221.6069	15391
221.62825	15478
221.64961	15455
221.67096	15448
221.69232	15276
221.71368	15376
221.73503	15314
221.75639	15338
221.77774	15409
221.7991	15452
221.82045	15453
221.84181	15427
221.86316	15473
221.88451	15486
221.90587	15444
221.92722	15549
221.94858	15525
221.96992	15532
221.99127	15524
222.01263	15535
222.03398	15537
222.05534	15636
222.07669	15569
222.09804	15597
222.11938	15695
222.14075	15702
222.16209	15756
222.18344	15659
222.2048	15528
222.22615	15575
222.2475	15456
222.26884	15438
222.29019	15455
222.31155	15460
222.3329	15493
222.35425	15473
222.3756	15430
222.39694	15466
222.41829	15508
222.43964	15591
222.46098	15550
222.48235	15600
222.50369	15556
222.52504	15512
222.54639	15561
222.56773	15557
222.58908	15591
222.61043	15555
222.63177	15554
222.65312	15710
222.67447	15748
222.69582	15845
222.71715	15687
222.73849	15708
222.75984	15750
222.78119	15713
222.80254	15772
222.82388	15749
222.84523	15869
222.86658	15866
222.88791	15846
222.90926	15833
222.9306	15876
222.95195	15872
222.9733	15914
222.99463	15957
223.01598	16004
223.03732	15950
223.05867	15880
223.08	15942
223.10135	15986
223.1227	16128
223.14403	16062
223.16537	16077
223.18672	16030
223.20805	16023
223.2294	16042
223.25073	15965
223.27208	16014
223.29343	15924
223.31476	16055
223.33611	16039
223.35744	16023
223.37878	16061
223.40012	16106
223.42146	16044
223.44279	16035
223.46414	15951
223.48547	15939
223.50682	15888
223.52815	15898
223.54948	15871
223.57083	15874
223.59216	15930
223.61349	15975
223.63484	15995
223.65617	15965
223.67752	16002
223.69885	15987
223.72018	15984
223.74152	16064
223.76286	16196
223.78419	16234
223.80553	16254
223.82686	16196
223.84821	16197
223.86954	16103
223.89087	16131
223.9122	16167
223.93353	16119
223.95488	16132
223.97621	16044
223.99754	15965
224.01888	15892
224.04021	15900
224.06154	15844
224.08287	15910
224.1042	16028
224.12553	16067
224.14687	16014
224.1682	15986
224.18953	15889
224.21086	15833
224.23219	15799
224.25352	15989
224.27486	16015
224.29619	16150
224.31752	16119
224.33885	16110
224.36018	16169
224.38152	16193
224.40285	16205
224.42418	16148
224.4455	16186
224.46683	16212
224.48816	16082
224.50949	16041
224.53082	16012
224.55214	15943
224.57347	15915
224.5948	15978
224.61613	15976
224.63745	15974
224.65878	16002
224.68011	15946
224.70145	15984
224.72276	16045
224.74409	16065
224.76541	16161
224.78674	16253
224.80807	16276
224.82939	16207
224.85072	16287
224.87204	16346
224.89337	16270
224.9147	16101
224.93602	16152
224.95735	16222
224.97867	16112
225	16052
225.02132	16182
225.04265	16278
225.06396	16320
225.08528	16318
225.10661	16341
225.12793	16355
225.14926	16371
225.17058	16368
225.19189	16399
225.21323	16460
225.23454	16516
225.25586	16454
225.27719	16480
225.29851	16571
225.31982	16543
225.34116	16515
225.36247	16490
225.38379	16433
225.40511	16429
225.42644	16505
225.44775	16391
225.46907	16393
225.49039	16399
225.5117	16393
225.53304	16427
225.55435	16513
225.57567	16564
225.59698	16544
225.6183	16574
225.63962	16546
225.66093	16474
225.68225	16519
225.70357	16566
225.72488	16585
225.7462	16657
225.76752	16630
225.78883	16622
225.81015	16613
225.83147	16584
225.85278	16599
225.8741	16634
225.89542	16726
225.91673	16659
225.93805	16665
225.95937	16701
225.98068	16648
226.00198	16723
226.0233	16586
226.04462	16615
226.06593	16639
226.08725	16702
226.10855	16683
226.12987	16755
226.15118	16722
226.1725	16753
226.1938	16823
226.21512	16910
226.23643	16884
226.25775	16896
226.27905	16838
226.30037	16804
226.32167	16793
226.34299	16746
226.3643	16786
226.3856	16812
226.40692	16786
226.42824	16731
226.44954	16647
226.47086	16732
226.49216	16691
226.51347	16700
226.53477	16647
226.55609	16554
226.57739	16590
226.59871	16594
226.62001	16453
226.64131	16339
226.66263	16365
226.68393	16411
226.70525	16389
226.72655	16552
226.74785	16541
226.76917	16446
226.79047	16387
226.81177	16473
226.83308	16494
226.85439	16368
226.87569	16426
