Date and Time:                Sun Jan 29 15:24:23.000 2023
Software Version:             4.31.30023.0
Temperature (C):              -40
Model:                        DU940P_BU2
Data Type:                    Counts
Acquisition Mode:             Single Scan
Trigger Mode:                 Internal
Exposure Time (secs):         0.3
Readout Mode:                 Full Vertical Binning
Horizontal binning:           1
Extended Dynamic Range:       off
Horizontally flipped:         false
Vertical Shift Speed (usecs): 14.51
Pixel Readout Rate (MHz):     3
Baseline Clamp:               ON
Clock Amplitude:              Normal
Output Amplifier:             High Capacity
Serial Number:                23634
Pre-Amplifier Gain:           1.000000
Spurious Noise Filter Mode:   No Filter
Photon counted:               false
Data Averaging Filter Mode:   No Filter
SR500i:
Serial Number:                
Wavelength (nm):              427
Grating Groove Density (l/mm):1199.47
Grating Blaze:                500
Output Flipper Port:          Direct
Accessory Output Port 1:      Off
Accessory Output Port 2:      Off
Accessory Output Port 3:      Off
Accessory Input Port:         On



406.20703	36120
406.22748	34882
406.24792	34883
406.26837	34934
406.28882	34956
406.30927	35228
406.32974	35068
406.35019	35086
406.37064	34978
406.39108	35009
406.41153	34829
406.43198	34881
406.45242	34763
406.47287	34764
406.49332	34885
406.51379	34945
406.53424	34831
406.55469	35003
406.57513	34886
406.59558	34816
406.61603	35007
406.63647	34936
406.65692	34882
406.67737	35104
406.69781	34860
406.71826	34762
406.73871	34870
406.75916	34546
406.7796	34873
406.80005	34830
406.8205	34841
406.84094	35055
406.86139	35051
406.88184	35059
406.90228	34897
406.9227	34874
406.94315	35086
406.96359	34994
406.98404	34986
407.00449	35385
407.02493	35091
407.04538	35057
407.06583	35115
407.08627	35000
407.10669	35023
407.12714	35211
407.14758	34933
407.16803	35126
407.18848	35145
407.20892	34933
407.22934	35117
407.24979	35000
407.27023	34908
407.29068	35322
407.31113	35241
407.33154	35134
407.35199	35084
407.37244	34844
407.39288	35121
407.4133	35373
407.43375	35197
407.45419	35312
407.47461	35170
407.49506	35282
407.5155	35340
407.53595	35143
407.55637	35254
407.57681	35347
407.59726	34930
407.61768	35051
407.63812	35078
407.65857	34878
407.67899	34935
407.69943	34766
407.71985	34794
407.7403	34926
407.76074	34778
407.78116	34803
407.80161	34851
407.82202	34596
407.84247	34996
407.86292	34683
407.88333	34926
407.90378	35136
407.92419	35184
407.94464	34996
407.96506	35230
407.9855	35001
408.00592	34777
408.02637	34930
408.04678	34936
408.06723	34931
408.08765	34908
408.10809	34709
408.12851	34901
408.14896	34810
408.16937	34707
408.18982	34941
408.21024	34868
408.23065	34859
408.2511	34994
408.27151	34718
408.29196	34982
408.31238	34897
408.33282	34959
408.35324	35216
408.37366	35222
408.3941	35187
408.41452	35337
408.43494	35114
408.45538	35227
408.4758	35333
408.49622	35144
408.51666	35369
408.53708	35285
408.5575	35202
408.57794	35443
408.59836	35141
408.61877	35191
408.63919	35225
408.65964	34919
408.68005	35040
408.70047	35188
408.72089	34966
408.74133	35117
408.76175	35300
408.78217	34897
408.80258	35090
408.82303	34993
408.84344	35247
408.86386	35367
408.88428	35219
408.90469	35263
408.92511	35351
408.94556	35309
408.96597	35327
408.98639	35368
409.00681	35199
409.02722	35414
409.04764	35439
409.06805	35103
409.08847	35263
409.10892	35231
409.12933	35377
409.14975	35363
409.17017	35070
409.19058	35486
409.211	35416
409.23141	35153
409.25183	35235
409.27225	35260
409.29266	35347
409.31308	35460
409.3335	35404
409.35391	35326
409.37433	35573
409.39474	35391
409.41516	35382
409.43558	35419
409.45599	35283
409.47641	35345
409.49683	35568
409.51724	35182
409.53766	35504
409.55807	35221
409.57846	35595
409.59888	35605
409.61929	35496
409.63971	35625
409.66013	35674
409.68054	35525
409.70096	35353
409.72137	35733
409.74176	35446
409.76218	35881
409.78259	35971
409.80301	35743
409.82343	36133
409.84384	35907
409.86423	35727
409.88464	35985
409.90506	35947
409.92548	35796
409.94589	36113
409.96628	35732
409.98669	35886
410.00711	35906
410.02753	35639
410.04791	35834
410.06833	35674
410.08875	35670
410.10913	35827
410.12955	35879
410.14996	35920
410.17035	36124
410.19077	35820
410.21118	35839
410.23157	36181
410.25198	35889
410.2724	35972
410.29279	36194
410.3132	35980
410.33362	36250
410.354	36367
410.37442	35887
410.39481	36374
410.41522	36015
410.43564	35955
410.45602	36053
410.47644	36060
410.49683	36136
410.51724	36332
410.53763	35977
410.55804	36411
410.57843	36250
410.59885	35953
410.61923	36042
410.63965	35872
410.66003	35711
410.68045	35962
410.70084	35954
410.72125	35817
410.74164	36258
410.76205	35914
410.78244	35930
410.80286	36097
410.82324	35779
410.84366	36009
410.86404	36157
410.88443	35966
410.90485	36180
410.92523	36156
410.94565	35851
410.96603	36303
410.98642	35987
411.00684	36176
411.02722	36544
411.04761	36000
411.06802	36418
411.08841	36257
411.1088	36091
411.12921	36300
411.1496	36453
411.16998	36200
411.19037	36252
411.21078	36229
411.23117	36339
411.25156	36623
411.27197	36327
411.29236	36322
411.31274	36714
411.33313	36435
411.35352	36414
411.37393	36544
411.39432	36265
411.4147	36751
411.43509	36566
411.45547	36323
411.47589	36768
411.49628	36379
411.51666	36363
411.53705	36700
411.55743	36723
411.57782	36488
411.59821	36766
411.61862	36434
411.63901	36551
411.65939	36902
411.67978	36376
411.70016	36584
411.72055	36602
411.74094	36301
411.76132	36535
411.78171	36579
411.80209	36164
411.82248	36751
411.84286	36282
411.86325	36416
411.88364	36714
411.90402	36493
411.92441	36432
411.94479	36525
411.96518	36144
411.98557	36289
412.00595	36397
412.02634	36150
412.04672	36415
412.06711	36409
412.08749	36070
412.10788	36480
412.12827	36430
412.14865	36370
412.16904	36650
412.18942	36337
412.20978	36225
412.23016	36653
412.25055	36213
412.27094	36545
412.29132	36713
412.31171	36400
412.33209	36485
412.35245	36451
412.37283	36233
412.39322	36689
412.4136	36463
412.43399	36568
412.45435	36516
412.47473	36608
412.49512	36501
412.5155	37059
412.53589	36605
412.55624	36756
412.57663	36742
412.59702	36565
412.61737	36644
412.63776	36955
412.65814	36645
412.67853	36804
412.69888	36866
412.71927	36597
412.73965	36929
412.76001	36952
412.7804	36742
412.80078	37051
412.82114	36929
412.84152	36661
412.86188	37173
412.88226	36562
412.90265	36689
412.923	36757
412.94339	36506
412.96375	36475
412.98413	36855
413.00452	36612
413.02487	36753
413.04526	37074
413.06561	36714
413.086	36961
413.10635	36939
413.12674	36635
413.14709	37161
413.16748	37050
413.18784	36965
413.20822	37033
413.22858	36875
413.24896	36838
413.26932	37021
413.2897	36734
413.31006	36799
413.33044	36868
413.3508	36561
413.37115	36794
413.39154	36913
413.4119	36658
413.43228	37007
413.45264	37253
413.47299	36838
413.49338	37358
413.51373	36884
413.53412	37082
413.55447	37315
413.57483	36952
413.59521	37141
413.61557	37317
413.63593	36939
413.65628	36982
413.67667	37088
413.69702	36891
413.71738	37032
413.73776	37294
413.75812	37023
413.77847	37397
413.79883	37214
413.81921	36837
413.83957	37245
413.85992	36887
413.88028	36989
413.90067	37400
413.92102	37165
413.94138	37178
413.96173	37351
413.98209	37098
414.00244	37038
414.02283	37570
414.04318	37144
414.06354	37381
414.08389	37479
414.10425	37101
414.1246	37197
414.14496	37377
414.16531	37102
414.1857	37212
414.20605	37006
414.22641	36977
414.24677	37144
414.26712	37094
414.28748	37110
414.30783	37315
414.32819	37209
414.34854	37163
414.3689	37459
414.38925	37205
414.40961	37371
414.42996	37518
414.45032	37293
414.47067	37468
414.49103	37608
414.51138	37384
414.53174	37382
414.55209	37397
414.57245	37286
414.5928	37250
414.61316	37371
414.63351	37123
414.65384	37558
414.67419	37452
414.69455	37410
414.7149	37579
414.73526	37387
414.75562	37353
414.77597	37613
414.79633	37345
414.81665	37312
414.83701	37754
414.85736	37300
414.87772	37615
414.89807	37781
414.9184	37273
414.93875	37514
414.95911	37544
414.97946	37275
414.99982	37650
415.02014	37588
415.0405	37323
415.06085	37757
415.08121	37491
415.10153	37427
415.12189	37910
415.14224	37494
415.16257	37610
415.18292	37987
415.20328	37593
415.2236	37723
415.24396	37885
415.26431	37547
415.28464	37766
415.30499	38050
415.32535	37903
415.34567	37942
415.36603	38077
415.38638	37822
415.40671	38190
415.42706	38121
415.44739	38004
415.46774	38095
415.48807	38201
415.50842	37786
415.52878	38163
415.5491	37990
415.56946	37802
415.58978	38070
415.61014	37902
415.63046	37843
415.65082	38104
415.67114	38055
415.6915	38019
415.71182	38295
415.73218	37845
415.7525	37940
415.77283	38355
415.79318	38011
415.81351	38213
415.83386	38278
415.85419	38032
415.87454	38119
415.89487	38177
415.91519	37987
415.93555	38154
415.95587	38028
415.97623	37874
415.99655	38151
416.01688	38224
416.03723	37939
416.05756	38262
416.07788	38035
416.09824	37945
416.11856	38385
416.13889	37966
416.15921	37753
416.17957	38131
416.19989	37673
416.22021	37726
416.24054	38012
416.26089	37731
416.28122	38044
416.30154	38279
416.32187	37724
416.34222	37965
416.36255	38002
416.38287	37773
416.4032	38080
416.42352	38100
416.44388	37862
416.4642	38382
416.48453	38046
416.50485	37877
416.52518	38232
416.5455	38203
416.56583	37918
416.58618	38387
416.60651	37978
416.62683	37986
416.64716	38256
416.66748	37947
416.68781	38067
416.70813	38115
416.72845	37829
416.74878	38263
416.7691	38352
416.78943	38145
416.80975	38543
416.83008	38448
416.8504	38129
416.87073	38455
416.89105	38489
416.91138	38280
416.9317	38670
416.95203	38497
416.97235	38255
416.99268	38890
417.013	38454
417.03333	38340
417.05365	38558
417.07397	38501
417.0943	38301
417.11462	38713
417.13495	38366
417.15524	38167
417.17557	38510
417.19589	38340
417.21622	38420
417.23654	38588
417.25687	38297
417.27716	38446
417.29749	38558
417.31781	38207
417.33813	38472
417.35846	38556
417.37878	38342
417.39908	38349
417.4194	38761
417.43973	38312
417.46005	38584
417.48035	38546
417.50067	38164
417.521	38269
417.54129	38412
417.56161	38021
417.58194	38422
417.60226	38094
417.62256	37949
417.64288	38213
417.66321	38035
417.6835	37958
417.70383	38371
417.72415	38101
417.74445	37838
417.76477	38436
417.78506	38129
417.80539	38205
417.82571	38648
417.84601	38364
417.86633	38167
417.88663	38540
417.90695	38301
417.92728	38397
417.94757	38510
417.9679	38369
417.98819	38411
418.00851	38685
418.02881	38321
418.04913	38399
418.06943	38553
418.08975	38109
418.11005	38248
418.13037	38665
418.15067	38206
418.17099	38799
418.19128	38566
418.21158	38237
418.2319	38591
418.2522	38623
418.27252	38328
418.29282	38751
418.31314	38829
418.33344	38487
418.35373	38845
418.37405	38540
418.39435	38376
418.41464	38651
418.43497	38412
418.45526	38301
418.47556	38740
418.49588	38439
418.51617	38171
418.53647	38664
418.55679	38478
418.57709	38453
418.59738	38661
418.61768	38522
418.638	38763
418.65829	38924
418.67859	38407
418.69888	38605
418.71921	38870
418.7395	38632
418.7598	38821
418.78009	38926
418.80042	38670
418.82071	38916
418.841	39081
418.8613	38455
418.88159	38998
418.90189	38896
418.92218	38483
418.9425	38951
418.9628	39281
418.98309	38728
419.00339	39222
419.02368	39083
419.04398	38932
419.06427	39228
419.08456	39156
419.10486	38752
419.12515	39249
419.14545	39161
419.16577	39036
419.18607	39326
419.20636	39051
419.22665	39238
419.24695	39440
419.26724	39397
419.28754	39312
419.30783	39732
419.32813	39401
419.34839	39118
419.36868	39618
419.38898	39268
419.40927	39598
419.42957	39781
419.44986	39715
419.47015	39846
419.49045	40094
419.51074	39883
419.53104	39899
419.55133	40237
419.57159	39716
419.59189	39879
419.61218	40067
419.63248	39770
419.65277	39934
419.67307	39956
419.69333	39707
419.71362	39818
419.73392	39705
419.75421	39312
419.77451	39615
419.79477	39736
419.81506	39557
419.83536	40032
419.85565	39847
419.87592	39458
419.89621	39989
419.9165	39970
419.9368	39756
419.95706	40027
419.97736	39976
419.99765	39928
420.01791	40073
420.03821	40127
420.0585	39904
420.07877	40132
420.09906	39990
420.11935	39771
420.13962	40065
420.15991	39948
420.18018	39755
420.20047	40056
420.22076	39906
420.24103	39794
420.26132	40093
420.28159	39908
420.30188	39455
420.32214	40072
420.34244	39667
420.36273	39672
420.383	39810
420.40329	39919
420.42355	39615
420.44385	39964
420.46411	39824
420.48441	39676
420.50467	40171
420.52493	39626
420.54523	39790
420.56549	40092
420.58578	39823
420.60605	39651
420.62634	39918
420.64661	39961
420.66687	39890
420.68716	40279
420.70743	39851
420.72772	39925
420.74799	39980
420.76825	39896
420.78854	39962
420.80881	40129
420.82907	39955
420.84937	40210
420.86963	40302
420.88989	40094
420.91019	40114
420.93045	40326
420.95071	40055
420.97098	40265
420.99127	40400
421.01154	40178
421.0318	40288
421.05206	40439
421.07236	40231
421.09262	40307
421.11288	40346
421.13315	40030
421.15341	40359
421.17371	40348
421.19397	40146
421.21423	40630
421.2345	40566
421.25476	40005
421.27502	40366
421.29532	40442
421.31558	40124
421.33585	40644
421.35611	40271
421.37637	40245
421.39664	40417
421.4169	40311
421.43716	40116
421.45743	40430
421.47769	40255
421.49796	40109
421.51822	40333
421.53848	40270
421.55875	40225
421.57901	40280
421.59927	40287
421.61954	40090
421.6398	40041
421.66006	40369
421.68033	39921
421.70059	40058
421.72086	39956
421.74112	39735
421.76138	40243
421.78165	40085
421.80191	39982
421.82217	40400
421.84244	39871
421.8627	39712
421.88297	40003
421.9032	40058
421.92346	39887
421.94373	40105
421.96399	40258
421.98425	39987
422.00452	40392
422.02475	40237
422.04501	39950
422.06528	40480
422.08554	40038
422.1058	40005
422.12604	40126
422.1463	40025
422.16656	39908
422.18683	40148
422.20706	39980
422.22733	40008
422.24759	40151
422.26785	40012
422.28809	40096
422.30835	40503
422.32861	40097
422.34885	40176
422.36911	40296
422.38937	40084
422.40961	40255
422.42987	40358
422.45013	40222
422.47037	40218
422.49063	40420
422.51086	40446
422.53113	40300
422.55139	40283
422.57162	40051
422.59189	40086
422.61212	40350
422.63239	40283
422.65262	40028
422.67288	40486
422.69312	40129
422.71338	40321
422.73361	40525
422.75388	40127
422.77411	40143
422.79437	40508
422.81461	40006
422.83487	40037
422.8551	40481
422.87537	40078
422.8956	40250
422.91586	40531
422.9361	40326
422.95633	40377
422.97659	40556
422.99683	40091
423.01709	40260
423.03732	40187
423.05756	40216
423.07782	40088
423.09805	40315
423.11829	39947
423.13855	39912
423.15878	40112
423.17902	39813
423.19928	39976
423.21951	40161
423.23975	39827
423.26001	39732
423.28024	39965
423.30048	40031
423.32071	39849
423.34097	40567
423.36121	40154
423.38144	40050
423.40167	40149
423.42191	40001
423.44217	39930
423.4624	40124
423.48264	39976
423.50287	40109
423.5231	40251
423.54333	39986
423.5636	39954
423.58383	40129
423.60406	39758
423.6243	39942
423.64453	40388
423.66476	40138
423.685	40191
423.70523	40213
423.72546	40104
423.74573	40033
423.76596	40403
423.78619	40257
423.80643	40354
423.82666	40681
423.84689	40542
423.86713	40181
423.88736	40678
423.90759	40379
423.92783	40525
423.94806	40609
423.96829	40405
423.98853	40339
424.00876	40653
424.02896	40183
424.04919	40442
424.06943	40646
424.08966	40365
424.10989	40449
424.13013	40475
424.15036	40485
424.17059	40354
424.19083	40640
424.21106	40288
424.23126	40341
424.2515	40499
424.27173	40506
424.29196	40576
424.31219	40855
424.3324	40603
424.35263	40329
424.37286	40753
424.3931	40467
424.41333	40483
424.43353	40562
424.45377	40463
424.474	40436
424.49423	40696
424.51443	40356
424.53467	40474
424.5549	40736
424.5751	40273
424.59534	40433
424.61557	40585
424.6358	40261
424.65601	40368
424.67624	40696
424.69644	40331
424.71667	40335
424.73691	40547
424.75711	40403
424.77734	40262
424.79758	40687
424.81778	40420
424.83801	40344
424.85822	40544
424.87845	40345
424.89865	40380
424.91888	40631
424.93909	40578
424.95932	40704
424.97955	40668
424.99976	40629
425.01999	40542
425.04019	40965
425.06042	40996
425.08063	40595
425.10083	40872
425.12106	40823
425.14127	40704
425.1615	40889
425.1817	40906
425.20193	40616
425.22214	40942
425.24234	40701
425.26257	40580
425.28278	40651
425.30301	40847
425.32321	40671
425.34341	41015
425.36365	40780
425.38385	40715
425.40405	40815
425.42429	40936
425.44449	40835
425.46469	40981
425.48492	40960
425.50513	40700
425.52533	41026
425.54553	41170
425.56577	40911
425.58597	40824
425.60617	41084
425.62637	40676
425.64661	40841
425.66681	41033
425.68701	40615
425.70721	41109
425.72742	40900
425.74765	40707
425.76785	40685
425.78806	40960
425.80826	40354
425.82846	40695
425.84866	40791
425.86887	40491
425.8891	40691
425.9093	40879
425.9295	40530
425.94971	40772
425.96991	40914
425.99011	40516
426.01031	40592
426.03052	40823
426.05072	40652
426.07092	40528
426.09113	40887
426.11133	40636
426.13153	40627
426.15173	40897
426.17194	40746
426.19214	40942
426.21234	41147
426.23254	40824
426.25275	40790
426.27295	40800
426.29315	40759
426.31335	40761
426.33356	41115
426.35376	40901
426.37396	40924
426.39413	41139
426.41434	41070
426.43454	40974
426.45474	41054
426.47495	41228
426.49515	40875
426.51535	41060
426.53552	41019
426.55573	40828
426.57593	41057
426.59613	41051
426.61633	40799
426.63651	41056
426.65671	40929
426.67691	40859
426.69711	40881
426.71729	41270
426.73749	40721
426.75769	41051
426.77789	41142
426.79807	40943
426.81827	41110
426.83847	41222
426.85864	40980
426.87885	41107
426.89905	41222
426.91922	40886
426.93942	41021
426.95963	41300
426.9798	41220
427	40466
427.02017	40542
427.04037	41625
427.06058	41203
427.08075	41361
427.10095	41150
427.12112	41332
427.14133	41391
427.1615	41147
427.1817	41150
427.20187	41312
427.22208	40998
427.24225	41169
427.26245	41258
427.28262	41333
427.30283	41133
427.323	41337
427.3432	41218
427.36337	41157
427.38358	41163
427.40375	41230
427.42395	41342
427.44412	41482
427.46429	41527
427.4845	41408
427.50467	41446
427.52484	41581
427.54504	41385
427.56522	41611
427.58542	41449
427.60559	41273
427.62576	41687
427.64597	41194
427.66614	41240
427.68631	41420
427.70648	41360
427.72668	41164
427.74686	41635
427.76703	41363
427.78723	41646
427.8074	41584
427.82758	41340
427.84775	41721
427.86792	41621
427.88812	41651
427.90829	41581
427.92847	41693
427.94864	41880
427.96881	41680
427.98901	41891
428.00919	41687
428.02936	41684
428.04953	41701
428.0697	41483
428.08987	41513
428.11005	41805
428.13022	41631
428.15042	41645
428.17059	41603
428.19077	41736
428.21094	41759
428.23111	41534
428.25128	41875
428.27145	41605
428.29163	41352
428.3118	41567
428.33197	41462
428.35214	41449
428.37231	41736
428.39249	41739
428.41266	41546
428.43283	41702
428.453	41605
428.47318	41526
428.49335	41784
428.51352	41506
428.53366	41303
428.55383	41336
428.57401	41301
428.59418	41234
428.61435	41088
428.63452	41013
428.65469	41440
428.67487	41101
428.69501	41144
428.71518	41302
428.73535	41087
428.75552	41361
428.7757	41147
