Date and Time:                Sun Jan 29 15:28:53.000 2023
Software Version:             4.31.30023.0
Temperature (C):              -40
Model:                        DU940P_BU2
Data Type:                    Counts
Acquisition Mode:             Single Scan
Trigger Mode:                 Internal
Exposure Time (secs):         0.3
Readout Mode:                 Full Vertical Binning
Horizontal binning:           1
Extended Dynamic Range:       off
Horizontally flipped:         false
Vertical Shift Speed (usecs): 14.51
Pixel Readout Rate (MHz):     3
Baseline Clamp:               ON
Clock Amplitude:              Normal
Output Amplifier:             High Capacity
Serial Number:                23634
Pre-Amplifier Gain:           1.000000
Spurious Noise Filter Mode:   No Filter
Photon counted:               false
Data Averaging Filter Mode:   No Filter
SR500i:
Serial Number:                
Wavelength (nm):              427
Grating Groove Density (l/mm):1199.47
Grating Blaze:                500
Output Flipper Port:          Direct
Accessory Output Port 1:      Off
Accessory Output Port 2:      Off
Accessory Output Port 3:      Off
Accessory Input Port:         On



406.20703	36128
406.22748	34923
406.24792	35021
406.26837	35034
406.28882	34971
406.30927	35299
406.32974	35243
406.35019	35247
406.37064	34973
406.39108	35052
406.41153	34884
406.43198	34776
406.45242	34789
406.47287	34851
406.49332	34896
406.51379	35018
406.53424	34828
406.55469	35011
406.57513	35031
406.59558	34923
406.61603	35018
406.63647	35015
406.65692	34904
406.67737	35134
406.69781	34811
406.71826	34872
406.73871	34976
406.75916	34729
406.7796	34884
406.80005	34852
406.8205	34894
406.84094	35117
406.86139	35086
406.88184	35112
406.90228	34940
406.9227	34934
406.94315	35145
406.96359	35158
406.98404	35033
407.00449	35387
407.02493	35158
407.04538	35178
407.06583	35133
407.08627	35136
407.10669	35057
407.12714	35334
407.14758	35135
407.16803	35219
407.18848	35176
407.20892	35078
407.22934	35218
407.24979	35145
407.27023	34993
407.29068	35380
407.31113	35312
407.33154	35235
407.35199	35191
407.37244	34882
407.39288	35196
407.4133	35470
407.43375	35311
407.45419	35343
407.47461	35279
407.49506	35304
407.5155	35396
407.53595	35163
407.55637	35194
407.57681	35346
407.59726	35015
407.61768	35087
407.63812	35144
407.65857	34904
407.67899	35169
407.69943	34855
407.71985	34900
407.7403	35054
407.76074	34909
407.78116	34845
407.80161	34886
407.82202	34781
407.84247	35011
407.86292	34816
407.88333	35040
407.90378	35224
407.92419	35205
407.94464	35144
407.96506	35222
407.9855	35062
408.00592	34785
408.02637	35007
408.04678	34900
408.06723	34929
408.08765	34954
408.10809	34674
408.12851	34979
408.14896	34914
408.16937	34796
408.18982	35001
408.21024	34901
408.23065	34891
408.2511	35119
408.27151	34753
408.29196	34994
408.31238	34978
408.33282	35038
408.35324	35283
408.37366	35342
408.3941	35301
408.41452	35427
408.43494	35199
408.45538	35320
408.4758	35427
408.49622	35205
408.51666	35460
408.53708	35372
408.5575	35140
408.57794	35508
408.59836	35259
408.61877	35293
408.63919	35374
408.65964	34986
408.68005	35077
408.70047	35242
408.72089	35078
408.74133	35182
408.76175	35277
408.78217	34935
408.80258	35200
408.82303	35114
408.84344	35329
408.86386	35358
408.88428	35340
408.90469	35365
408.92511	35442
408.94556	35438
408.96597	35427
408.98639	35484
409.00681	35316
409.02722	35543
409.04764	35536
409.06805	35204
409.08847	35387
409.10892	35328
409.12933	35405
409.14975	35428
409.17017	35173
409.19058	35453
409.211	35515
409.23141	35202
409.25183	35423
409.27225	35355
409.29266	35350
409.31308	35423
409.3335	35435
409.35391	35338
409.37433	35655
409.39474	35385
409.41516	35428
409.43558	35528
409.45599	35278
409.47641	35355
409.49683	35640
409.51724	35225
409.53766	35625
409.55807	35356
409.57846	35607
409.59888	35713
409.61929	35575
409.63971	35648
409.66013	35902
409.68054	35664
409.70096	35477
409.72137	35850
409.74176	35538
409.76218	35908
409.78259	35975
409.80301	35724
409.82343	36193
409.84384	36017
409.86423	35869
409.88464	36158
409.90506	35978
409.92548	35825
409.94589	36147
409.96628	35809
409.98669	35947
410.00711	35988
410.02753	35693
410.04791	35913
410.06833	35717
410.08875	35643
410.10913	35896
410.12955	35876
410.14996	35963
410.17035	36205
410.19077	35860
410.21118	35863
410.23157	36324
410.25198	36018
410.2724	36149
410.29279	36412
410.3132	36030
410.33362	36309
410.354	36567
410.37442	36013
410.39481	36454
410.41522	36158
410.43564	36123
410.45602	36168
410.47644	36156
410.49683	36222
410.51724	36379
410.53763	36034
410.55804	36354
410.57843	36212
410.59885	35992
410.61923	36199
410.63965	35962
410.66003	35772
410.68045	36062
410.70084	35992
410.72125	35875
410.74164	36269
410.76205	35981
410.78244	35964
410.80286	36203
410.82324	35905
410.84366	36049
410.86404	36185
410.88443	35987
410.90485	36238
410.92523	36226
410.94565	35913
410.96603	36359
410.98642	36083
411.00684	36156
411.02722	36675
411.04761	36084
411.06802	36409
411.08841	36328
411.1088	36162
411.12921	36345
411.1496	36479
411.16998	36334
411.19037	36339
411.21078	36409
411.23117	36380
411.25156	36665
411.27197	36357
411.29236	36442
411.31274	36856
411.33313	36495
411.35352	36523
411.37393	36639
411.39432	36356
411.4147	36880
411.43509	36658
411.45547	36394
411.47589	36803
411.49628	36516
411.51666	36444
411.53705	36718
411.55743	36725
411.57782	36448
411.59821	36833
411.61862	36400
411.63901	36559
411.65939	36907
411.67978	36460
411.70016	36640
411.72055	36774
411.74094	36364
411.76132	36535
411.78171	36640
411.80209	36272
411.82248	36811
411.84286	36395
411.86325	36543
411.88364	36802
411.90402	36644
411.92441	36503
411.94479	36551
411.96518	36234
411.98557	36380
412.00595	36458
412.02634	36233
412.04672	36365
412.06711	36443
412.08749	36224
412.10788	36539
412.12827	36384
412.14865	36437
412.16904	36798
412.18942	36464
412.20978	36355
412.23016	36709
412.25055	36227
412.27094	36541
412.29132	36699
412.31171	36490
412.33209	36476
412.35245	36551
412.37283	36394
412.39322	36736
412.4136	36558
412.43399	36682
412.45435	36702
412.47473	36792
412.49512	36610
412.5155	37079
412.53589	36598
412.55624	36838
412.57663	36842
412.59702	36648
412.61737	36733
412.63776	36989
412.65814	36790
412.67853	36842
412.69888	36948
412.71927	36685
412.73965	36943
412.76001	36962
412.7804	36811
412.80078	37124
412.82114	36973
412.84152	36689
412.86188	37165
412.88226	36658
412.90265	36804
412.923	36818
412.94339	36659
412.96375	36578
412.98413	36936
413.00452	36749
413.02487	36790
413.04526	37239
413.06561	36841
413.086	37089
413.10635	37033
413.12674	36775
413.14709	37168
413.16748	37050
413.18784	36999
413.20822	37192
413.22858	36958
413.24896	36935
413.26932	37143
413.2897	36828
413.31006	36885
413.33044	36961
413.3508	36670
413.37115	36932
413.39154	36985
413.4119	36684
413.43228	37065
413.45264	37265
413.47299	36912
413.49338	37472
413.51373	36953
413.53412	37132
413.55447	37406
413.57483	37042
413.59521	37139
413.61557	37380
413.63593	37048
413.65628	37085
413.67667	37094
413.69702	36960
413.71738	37151
413.73776	37418
413.75812	37072
413.77847	37471
413.79883	37297
413.81921	36909
413.83957	37327
413.85992	37018
413.88028	37036
413.90067	37451
413.92102	37272
413.94138	37167
413.96173	37460
413.98209	37191
414.00244	37172
414.02283	37613
414.04318	37220
414.06354	37514
414.08389	37609
414.10425	37222
414.1246	37253
414.14496	37457
414.16531	37175
414.1857	37309
414.20605	37087
414.22641	36998
414.24677	37247
414.26712	37221
414.28748	37144
414.30783	37350
414.32819	37244
414.34854	37140
414.3689	37544
414.38925	37239
414.40961	37452
414.42996	37569
414.45032	37323
414.47067	37461
414.49103	37711
414.51138	37417
414.53174	37512
414.55209	37496
414.57245	37366
414.5928	37409
414.61316	37473
414.63351	37183
414.65384	37624
414.67419	37486
414.69455	37501
414.7149	37695
414.73526	37478
414.75562	37374
414.77597	37648
414.79633	37464
414.81665	37367
414.83701	37780
414.85736	37412
414.87772	37665
414.89807	37828
414.9184	37433
414.93875	37620
414.95911	37522
414.97946	37365
414.99982	37700
415.02014	37561
415.0405	37425
415.06085	37785
415.08121	37519
415.10153	37532
415.12189	37956
415.14224	37586
415.16257	37689
415.18292	38107
415.20328	37568
415.2236	37866
415.24396	37994
415.26431	37669
415.28464	37834
415.30499	38058
415.32535	37954
415.34567	38012
415.36603	38236
415.38638	37919
415.40671	38334
415.42706	38212
415.44739	38075
415.46774	38165
415.48807	38293
415.50842	37816
415.52878	38192
415.5491	38056
415.56946	37875
415.58978	38163
415.61014	37969
415.63046	37859
415.65082	38162
415.67114	38176
415.6915	38084
415.71182	38471
415.73218	37990
415.7525	38081
415.77283	38396
415.79318	38064
415.81351	38292
415.83386	38439
415.85419	38181
415.87454	38178
415.89487	38320
415.91519	38147
415.93555	38259
415.95587	38120
415.97623	37986
415.99655	38164
416.01688	38292
416.03723	38057
416.05756	38305
416.07788	38193
416.09824	38015
416.11856	38404
416.13889	37985
416.15921	37901
416.17957	38285
416.19989	37677
416.22021	37798
416.24054	38131
416.26089	37821
416.28122	38011
416.30154	38333
416.32187	37807
416.34222	37991
416.36255	37983
416.38287	37891
416.4032	38319
416.42352	38221
416.44388	37956
416.4642	38346
416.48453	38151
416.50485	37887
416.52518	38340
416.5455	38352
416.56583	38011
416.58618	38527
416.60651	38102
416.62683	38093
416.64716	38403
416.66748	38061
416.68781	38144
416.70813	38223
416.72845	37963
416.74878	38307
416.7691	38391
416.78943	38281
416.80975	38599
416.83008	38547
416.8504	38206
416.87073	38488
416.89105	38546
416.91138	38255
416.9317	38693
416.95203	38583
416.97235	38381
416.99268	38852
417.013	38537
417.03333	38350
417.05365	38610
417.07397	38515
417.0943	38283
417.11462	38759
417.13495	38399
417.15524	38268
417.17557	38527
417.19589	38450
417.21622	38487
417.23654	38668
417.25687	38391
417.27716	38490
417.29749	38633
417.31781	38331
417.33813	38508
417.35846	38583
417.37878	38450
417.39908	38444
417.4194	38812
417.43973	38360
417.46005	38623
417.48035	38627
417.50067	38213
417.521	38352
417.54129	38572
417.56161	38115
417.58194	38467
417.60226	38262
417.62256	37967
417.64288	38259
417.66321	38047
417.6835	38047
417.70383	38549
417.72415	38214
417.74445	37988
417.76477	38500
417.78506	38266
417.80539	38347
417.82571	38799
417.84601	38526
417.86633	38301
417.88663	38578
417.90695	38363
417.92728	38453
417.94757	38636
417.9679	38452
417.98819	38445
418.00851	38736
418.02881	38336
418.04913	38368
418.06943	38609
418.08975	38133
418.11005	38307
418.13037	38809
418.15067	38236
418.17099	38899
418.19128	38717
418.21158	38249
418.2319	38637
418.2522	38692
418.27252	38416
418.29282	38839
418.31314	38907
418.33344	38567
418.35373	38906
418.37405	38689
418.39435	38543
418.41464	38812
418.43497	38560
418.45526	38396
418.47556	38745
418.49588	38582
418.51617	38237
418.53647	38685
418.55679	38536
418.57709	38534
418.59738	38708
418.61768	38593
418.638	38711
418.65829	38946
418.67859	38530
418.69888	38670
418.71921	38936
418.7395	38673
418.7598	38870
418.78009	38990
418.80042	38789
418.82071	39008
418.841	39141
418.8613	38459
418.88159	38976
418.90189	38959
418.92218	38612
418.9425	38920
418.9628	39307
418.98309	38744
419.00339	39270
419.02368	39148
419.04398	38924
419.06427	39249
419.08456	39159
419.10486	38883
419.12515	39341
419.14545	39203
419.16577	39067
419.18607	39500
419.20636	39140
419.22665	39354
419.24695	39430
419.26724	39443
419.28754	39396
419.30783	39753
419.32813	39485
419.34839	39212
419.36868	39760
419.38898	39461
419.40927	39586
419.42957	39854
419.44986	39842
419.47015	39869
419.49045	40152
419.51074	39893
419.53104	39928
419.55133	40260
419.57159	39762
419.59189	40024
419.61218	40148
419.63248	39795
419.65277	39938
419.67307	39881
419.69333	39653
419.71362	39825
419.73392	39771
419.75421	39422
419.77451	39644
419.79477	39855
419.81506	39663
419.83536	40044
419.85565	39853
419.87592	39657
419.89621	40068
419.9165	39980
419.9368	39814
419.95706	40049
419.97736	39983
419.99765	39939
420.01791	40071
420.03821	40250
420.0585	39988
420.07877	40141
420.09906	40002
420.11935	39784
420.13962	40141
420.15991	39998
420.18018	39795
420.20047	40137
420.22076	40053
420.24103	39883
420.26132	40073
420.28159	39937
420.30188	39561
420.32214	40105
420.34244	39689
420.36273	39678
420.383	39930
420.40329	40041
420.42355	39769
420.44385	40101
420.46411	39876
420.48441	39671
420.50467	40267
420.52493	39733
420.54523	39838
420.56549	40134
420.58578	39965
420.60605	39658
420.62634	39930
420.64661	40087
420.66687	39988
420.68716	40313
420.70743	39965
420.72772	40033
420.74799	40104
420.76825	39945
420.78854	40049
420.80881	40201
420.82907	40068
420.84937	40313
420.86963	40361
420.88989	40184
420.91019	40120
420.93045	40422
420.95071	40153
420.97098	40296
420.99127	40460
421.01154	40271
421.0318	40326
421.05206	40468
421.07236	40307
421.09262	40380
421.11288	40410
421.13315	40150
421.15341	40324
421.17371	40397
421.19397	40260
421.21423	40668
421.2345	40593
421.25476	40186
421.27502	40492
421.29532	40515
421.31558	40217
421.33585	40620
421.35611	40315
421.37637	40305
421.39664	40459
421.4169	40327
421.43716	40185
421.45743	40537
421.47769	40413
421.49796	40159
421.51822	40373
421.53848	40378
421.55875	40245
421.57901	40409
421.59927	40310
421.61954	40186
421.6398	40147
421.66006	40484
421.68033	40065
421.70059	40114
421.72086	40067
421.74112	39752
421.76138	40162
421.78165	40107
421.80191	40005
421.82217	40423
421.84244	39969
421.8627	39901
421.88297	40111
421.9032	40182
421.92346	39946
421.94373	40206
421.96399	40393
421.98425	40039
422.00452	40486
422.02475	40312
422.04501	40075
422.06528	40554
422.08554	40172
422.1058	40117
422.12604	40194
422.1463	40098
422.16656	40002
422.18683	40178
422.20706	40089
422.22733	40122
422.24759	40306
422.26785	40174
422.28809	40250
422.30835	40638
422.32861	40228
422.34885	40220
422.36911	40346
422.38937	40125
422.40961	40385
422.42987	40412
422.45013	40352
422.47037	40379
422.49063	40536
422.51086	40517
422.53113	40348
422.55139	40319
422.57162	40180
422.59189	40210
422.61212	40422
422.63239	40352
422.65262	40120
422.67288	40597
422.69312	40255
422.71338	40332
422.73361	40610
422.75388	40206
422.77411	40188
422.79437	40548
422.81461	40070
422.83487	40045
422.8551	40522
422.87537	40112
422.8956	40318
422.91586	40616
422.9361	40423
422.95633	40459
422.97659	40638
422.99683	40168
423.01709	40345
423.03732	40246
423.05756	40307
423.07782	40150
423.09805	40425
423.11829	40035
423.13855	39987
423.15878	40210
423.17902	39964
423.19928	40126
423.21951	40250
423.23975	39938
423.26001	39740
423.28024	39998
423.30048	40092
423.32071	39919
423.34097	40537
423.36121	40232
423.38144	40148
423.40167	40266
423.42191	40035
423.44217	40011
423.4624	40215
423.48264	40004
423.50287	40114
423.5231	40216
423.54333	40025
423.5636	40022
423.58383	40149
423.60406	39876
423.6243	40032
423.64453	40448
423.66476	40248
423.685	40315
423.70523	40244
423.72546	40183
423.74573	40034
423.76596	40443
423.78619	40464
423.80643	40442
423.82666	40772
423.84689	40781
423.86713	40316
423.88736	40763
423.90759	40449
423.92783	40535
423.94806	40676
423.96829	40560
423.98853	40505
424.00876	40753
424.02896	40287
424.04919	40520
424.06943	40683
424.08966	40395
424.10989	40502
424.13013	40530
424.15036	40567
424.17059	40457
424.19083	40748
424.21106	40357
424.23126	40481
424.2515	40606
424.27173	40632
424.29196	40625
424.31219	40882
424.3324	40634
424.35263	40421
424.37286	40809
424.3931	40548
424.41333	40469
424.43353	40598
424.45377	40580
424.474	40581
424.49423	40770
424.51443	40438
424.53467	40535
424.5549	40701
424.5751	40358
424.59534	40461
424.61557	40638
424.6358	40335
424.65601	40398
424.67624	40744
424.69644	40415
424.71667	40365
424.73691	40641
424.75711	40497
424.77734	40337
424.79758	40707
424.81778	40534
424.83801	40471
424.85822	40627
424.87845	40428
424.89865	40452
424.91888	40663
424.93909	40591
424.95932	40711
424.97955	40714
424.99976	40770
425.01999	40545
425.04019	40926
425.06042	41030
425.08063	40726
425.10083	40979
425.12106	40966
425.14127	40836
425.1615	40862
425.1817	40901
425.20193	40736
425.22214	41060
425.24234	40712
425.26257	40646
425.28278	40661
425.30301	40960
425.32321	40777
425.34341	41116
425.36365	40905
425.38385	40824
425.40405	40910
425.42429	41031
425.44449	40860
425.46469	41077
425.48492	41100
425.50513	40795
425.52533	41090
425.54553	41177
425.56577	40885
425.58597	40847
425.60617	41134
425.62637	40753
425.64661	40816
425.66681	41060
425.68701	40642
425.70721	41136
425.72742	40986
425.74765	40772
425.76785	40714
425.78806	41022
425.80826	40441
425.82846	40763
425.84866	40836
425.86887	40611
425.8891	40706
425.9093	40920
425.9295	40594
425.94971	40828
425.96991	40933
425.99011	40668
426.01031	40655
426.03052	40842
426.05072	40727
426.07092	40625
426.09113	40930
426.11133	40705
426.13153	40694
426.15173	40971
426.17194	40875
426.19214	41012
426.21234	41176
426.23254	40939
426.25275	40854
426.27295	40815
426.29315	40825
426.31335	40869
426.33356	41209
426.35376	41003
426.37396	40999
426.39413	41232
426.41434	41156
426.43454	41081
426.45474	41013
426.47495	41210
426.49515	40955
426.51535	41165
426.53552	41092
426.55573	40938
426.57593	41152
426.59613	41124
426.61633	40857
426.63651	41102
426.65671	40984
426.67691	40944
426.69711	40913
426.71729	41359
426.73749	40836
426.75769	41061
426.77789	41195
426.79807	41049
426.81827	41165
426.83847	41341
426.85864	41150
426.87885	41209
426.89905	41428
426.91922	41038
426.93942	41120
426.95963	41465
426.9798	41372
427	40479
427.02017	40631
427.04037	41723
427.06058	41303
427.08075	41435
427.10095	41215
427.12112	41395
427.14133	41417
427.1615	41234
427.1817	41237
427.20187	41386
427.22208	41078
427.24225	41225
427.26245	41323
427.28262	41398
427.30283	41169
427.323	41385
427.3432	41281
427.36337	41162
427.38358	41131
427.40375	41227
427.42395	41363
427.44412	41536
427.46429	41561
427.4845	41501
427.50467	41525
427.52484	41642
427.54504	41440
427.56522	41630
427.58542	41492
427.60559	41289
427.62576	41718
427.64597	41266
427.66614	41347
427.68631	41513
427.70648	41455
427.72668	41279
427.74686	41752
427.76703	41487
427.78723	41795
427.8074	41694
427.82758	41460
427.84775	41888
427.86792	41761
427.88812	41798
427.90829	41598
427.92847	41701
427.94864	41899
427.96881	41696
427.98901	41903
428.00919	41733
428.02936	41745
428.04953	41795
428.0697	41543
428.08987	41573
428.11005	41878
428.13022	41659
428.15042	41697
428.17059	41666
428.19077	41807
428.21094	41852
428.23111	41587
428.25128	41896
428.27145	41654
428.29163	41469
428.3118	41697
428.33197	41613
428.35214	41596
428.37231	41886
428.39249	41921
428.41266	41720
428.43283	41858
428.453	41727
428.47318	41654
428.49335	41858
428.51352	41619
428.53366	41451
428.55383	41414
428.57401	41364
428.59418	41360
428.61435	41202
428.63452	41129
428.65469	41475
428.67487	41140
428.69501	41204
428.71518	41423
428.73535	41164
428.75552	41441
428.7757	41209
