Date and Time:                Thu Sep 8 17:00:29.000 2022
Software Version:             4.31.30023.0
Temperature (C):              -40
Model:                        DU940P_BU2
Data Type:                    Counts
Acquisition Mode:             Single Scan
Trigger Mode:                 Internal
Exposure Time (secs):         0.25
Readout Mode:                 Full Vertical Binning
Horizontal binning:           1
Extended Dynamic Range:       off
Horizontally flipped:         false
Vertical Shift Speed (usecs): 14.51
Pixel Readout Rate (MHz):     3
Baseline Clamp:               ON
Clock Amplitude:              Normal
Output Amplifier:             High Capacity
Serial Number:                23634
Pre-Amplifier Gain:           1.000000
Spurious Noise Filter Mode:   No Filter
Photon counted:               false
Data Averaging Filter Mode:   No Filter
SR500i:
Serial Number:                
Wavelength (nm):              277
Grating Groove Density (l/mm):1199.47
Grating Blaze:                500
Output Flipper Port:          Direct
Accessory Output Port 1:      Off
Accessory Output Port 2:      Off
Accessory Output Port 3:      Off
Accessory Input Port:         On



255.33896	5376
255.36023	5116
255.38152	5108
255.40279	5126
255.42406	5185
255.44533	5244
255.4666	5187
255.48787	5215
255.50914	5186
255.53041	5235
255.55168	5212
255.57295	5158
255.59422	5195
255.61549	5211
255.63676	5228
255.65805	5251
255.67931	5230
255.70058	5288
255.72185	5313
255.74312	5278
255.76439	5238
255.78566	5264
255.80693	5293
255.8282	5293
255.84947	5289
255.87074	5264
255.89201	5249
255.91328	5228
255.93454	5240
255.95581	5302
255.97708	5331
255.99835	5346
256.01962	5360
256.04089	5328
256.06216	5305
256.08344	5356
256.10468	5363
256.12595	5415
256.14722	5500
256.16849	5484
256.18976	5491
256.21103	5473
256.2323	5478
256.25354	5480
256.27481	5475
256.29608	5562
256.31735	5503
256.33862	5557
256.35986	5502
256.38113	5490
256.4024	5535
256.42368	5567
256.44495	5572
256.46619	5561
256.48746	5533
256.50873	5560
256.53	5540
256.55124	5570
256.57251	5567
256.59378	5583
256.61505	5640
256.63629	5666
256.65756	5688
256.67883	5657
256.7001	5659
256.72134	5708
256.74261	5688
256.76389	5674
256.78513	5660
256.8064	5671
256.82767	5698
256.84891	5681
256.87018	5624
256.89145	5621
256.91269	5659
256.93396	5640
256.95523	5660
256.97647	5697
256.99774	5663
257.01901	5633
257.04025	5641
257.06152	5688
257.08276	5694
257.10403	5734
257.12531	5757
257.14655	5768
257.16782	5801
257.18906	5772
257.21033	5709
257.23157	5705
257.25284	5735
257.27411	5749
257.29535	5805
257.31662	5795
257.33786	5762
257.35913	5799
257.38037	5779
257.40164	5763
257.42288	5798
257.44415	5847
257.46539	5862
257.48666	5864
257.5079	5882
257.52917	5870
257.55042	5932
257.57169	5933
257.59293	5957
257.6142	5985
257.63544	5993
257.65668	5943
257.67795	6018
257.69919	6085
257.72046	6076
257.7417	6077
257.76297	6027
257.78421	6092
257.80545	6039
257.82672	6052
257.84796	6066
257.86923	6098
257.89047	6056
257.91171	6067
257.93298	6060
257.95422	6103
257.97546	6042
257.99673	6106
258.01797	6106
258.03922	6102
258.06049	6112
258.08173	6140
258.10297	6134
258.12424	6168
258.14548	6203
258.16672	6215
258.18799	6244
258.20923	6177
258.23047	6197
258.25171	6245
258.27298	6261
258.29422	6197
258.31546	6172
258.3367	6220
258.35797	6247
258.37921	6311
258.40045	6320
258.42169	6322
258.44296	6277
258.4642	6295
258.48544	6256
258.50668	6257
258.52792	6293
258.54919	6309
258.57043	6344
258.59167	6357
258.61292	6379
258.63416	6382
258.6554	6343
258.67667	6375
258.69791	6381
258.71915	6379
258.74039	6457
258.76163	6461
258.78287	6444
258.80411	6485
258.82538	6480
258.84662	6552
258.86786	6572
258.8891	6542
258.91034	6576
258.93158	6579
258.95282	6605
258.97406	6581
258.9953	6587
259.01654	6583
259.03778	6654
259.05902	6608
259.08026	6674
259.1015	6736
259.12274	6749
259.14398	6829
259.16522	6788
259.18646	6784
259.2077	6779
259.22894	6780
259.25018	6804
259.27142	6820
259.29266	6883
259.3139	6878
259.33514	6845
259.35638	6827
259.37762	6801
259.39886	6826
259.4201	6880
259.44135	6926
259.46259	6952
259.48383	6894
259.50507	6923
259.52631	6894
259.54755	6939
259.56879	6952
259.59	6974
259.61124	7054
259.63248	7003
259.65372	6990
259.67496	6992
259.6962	7013
259.71744	7001
259.73865	6982
259.75989	6979
259.78113	7096
259.80237	7117
259.82361	7153
259.84485	7146
259.86606	7130
259.8873	7055
259.90854	7057
259.92978	7020
259.95102	7011
259.97223	7002
259.99347	6993
260.01471	6951
260.03595	7057
260.05716	7069
260.0784	7056
260.09964	7071
260.12088	7054
260.14209	7073
260.16333	7107
260.18457	7142
260.20581	7223
260.22702	7268
260.24826	7292
260.2695	7296
260.29071	7312
260.31195	7368
260.33319	7401
260.3544	7358
260.37564	7414
260.39688	7434
260.41809	7453
260.43933	7426
260.46057	7368
260.48178	7393
260.50302	7371
260.52423	7365
260.54547	7448
260.56671	7468
260.58792	7464
260.60916	7475
260.63037	7480
260.65161	7493
260.67285	7533
260.69406	7589
260.7153	7636
260.73651	7638
260.75775	7660
260.77896	7656
260.8002	7677
260.82141	7659
260.84265	7645
260.86389	7615
260.8851	7709
260.90634	7703
260.92755	7656
260.94879	7642
260.97	7694
260.99121	7748
261.01245	7728
261.03366	7752
261.0549	7707
261.07611	7663
261.09735	7703
261.11856	7719
261.1398	7696
261.16101	7740
261.18225	7796
261.20346	7792
261.22467	7853
261.24591	7873
261.26712	7902
261.28836	7842
261.30957	7815
261.33078	7806
261.35202	7763
261.37323	7823
261.39444	7780
261.41568	7804
261.43689	7804
261.4581	7801
261.47934	7836
261.50055	7872
261.52176	7880
261.543	7897
261.56421	7868
261.58542	7871
261.60666	7887
261.62787	7877
261.64908	7871
261.67032	7895
261.69153	7917
261.71274	7927
261.73395	7864
261.75519	7950
261.7764	7986
261.79761	8026
261.81882	8050
261.84006	8033
261.86127	8024
261.88248	8115
261.90369	8136
261.9249	8131
261.94614	8149
261.96735	8129
261.98856	8128
262.00977	8172
262.03098	8206
262.05222	8225
262.07343	8256
262.09464	8239
262.11584	8225
262.13705	8235
262.15826	8273
262.17947	8276
262.20071	8286
262.22192	8282
262.24313	8224
262.26434	8240
262.28555	8281
262.30676	8239
262.32797	8247
262.34918	8295
262.37039	8284
262.3916	8302
262.41281	8384
262.43402	8316
262.45523	8378
262.47647	8377
262.49768	8441
262.51889	8432
262.5401	8499
262.56131	8484
262.58252	8528
262.60373	8556
262.62494	8551
262.64615	8441
262.66736	8500
262.68857	8535
262.70978	8479
262.73099	8475
262.75217	8502
262.77338	8518
262.79459	8515
262.8158	8460
262.83701	8503
262.85822	8553
262.87943	8556
262.90063	8624
262.92184	8652
262.94305	8634
262.96426	8584
262.98547	8552
263.00665	8612
263.02786	8613
263.04907	8653
263.07028	8631
263.09149	8618
263.1127	8622
263.13391	8606
263.15509	8634
263.1763	8693
263.19751	8762
263.21872	8791
263.23993	8792
263.26114	8765
263.28232	8739
263.30353	8719
263.32474	8776
263.34595	8726
263.36713	8834
263.38834	8877
263.40955	8858
263.43076	8854
263.45193	8945
263.47314	8937
263.49435	8981
263.51556	8964
263.53674	8926
263.55795	8981
263.57916	8877
263.60034	8968
263.62155	8942
263.64276	8919
263.66397	8961
263.68515	8901
263.70636	8939
263.72757	8977
263.74875	8998
263.76996	9019
263.79117	9019
263.81235	9020
263.83356	9024
263.85474	9096
263.87595	9157
263.89716	9189
263.91833	9120
263.93954	9195
263.96072	9212
263.98193	9130
264.00314	9158
264.02432	9190
264.04553	9230
264.06671	9192
264.08792	9204
264.1091	9242
264.13031	9245
264.15149	9288
264.1727	9323
264.19388	9367
264.21509	9395
264.2363	9343
264.25748	9241
264.27869	9251
264.29987	9315
264.32104	9328
264.34225	9400
264.36343	9482
264.38464	9412
264.40582	9398
264.42703	9387
264.44821	9362
264.46942	9431
264.4906	9415
264.51181	9526
264.53299	9546
264.55417	9639
264.57538	9582
264.59656	9527
264.61777	9671
264.63895	9650
264.66013	9606
264.68134	9704
264.70251	9717
264.72369	9725
264.7449	9746
264.76608	9692
264.78726	9679
264.80847	9732
264.82965	9744
264.85083	9732
264.87204	9864
264.89322	9904
264.9144	9962
264.93561	9991
264.95679	9960
264.97797	9979
264.99915	9980
265.02036	9943
265.04153	9976
265.06271	9998
265.08389	10035
265.1051	10061
265.12628	10000
265.14746	9990
265.16864	9977
265.18985	10068
265.21103	10178
265.23221	10175
265.25339	10107
265.27457	10032
265.29578	10051
265.31696	10161
265.33813	10119
265.35931	10138
265.38049	10143
265.40167	10148
265.42285	10126
265.44406	10095
265.46524	10100
265.48642	10137
265.5076	10176
265.52878	10217
265.54996	10301
265.57114	10290
265.59232	10321
265.61349	10269
265.6347	10259
265.65588	10225
265.67706	10174
265.69824	10156
265.71942	10110
265.7406	10130
265.76178	10095
265.78296	10061
265.80414	10152
265.82532	10212
265.8465	10190
265.86768	10200
265.88885	10202
265.91003	10151
265.93121	10241
265.95239	10259
265.97357	10404
265.99475	10467
266.01593	10469
266.03711	10450
266.05829	10481
266.07947	10522
266.10065	10548
266.1218	10495
266.14297	10481
266.16415	10519
266.18533	10521
266.20651	10472
266.22769	10478
266.24887	10434
266.27005	10437
266.29123	10454
266.31238	10613
266.33356	10694
266.35474	10748
266.37592	10692
266.39709	10652
266.41827	10606
266.43945	10646
266.4606	10756
266.48178	10812
266.50296	10951
266.52414	10932
266.54532	10922
266.56647	10905
266.58765	10912
266.60883	10895
266.63	10910
266.65115	10962
266.67233	10983
266.69351	10991
266.71469	10893
266.73584	10862
266.75702	10894
266.7782	10907
266.79938	10915
266.82053	10875
266.84171	10897
266.86288	10859
266.88403	10887
266.90521	10840
266.92639	10927
266.94754	11004
266.96872	11018
266.9899	11002
267.01105	11100
267.03223	11119
267.05341	11076
267.07455	11021
267.09573	11007
267.11688	10976
267.13806	10933
267.15924	10947
267.18039	10961
267.20157	10869
267.22272	10822
267.2439	10853
267.26505	10917
267.28622	10868
267.3074	10877
267.32855	10848
267.34973	10840
267.37088	10891
267.39206	10980
267.41321	11087
267.43439	11187
267.45554	11218
267.47672	11180
267.49786	11132
267.51904	11122
267.54019	11163
267.56137	11125
267.58252	11105
267.6037	11173
267.62485	11192
267.646	11153
267.66718	11111
267.68832	11135
267.7095	11105
267.73065	11097
267.75183	11270
267.77298	11362
267.79413	11383
267.81531	11259
267.83646	11257
267.85764	11264
267.87878	11217
267.89993	11241
267.92111	11298
267.94226	11458
267.96341	11432
267.98459	11458
268.00574	11338
268.02689	11420
268.04807	11421
268.06921	11430
268.09036	11462
268.11154	11346
268.13269	11379
268.15384	11401
268.17499	11426
268.19617	11396
268.21732	11371
268.23846	11421
268.25961	11455
268.28079	11462
268.30194	11422
268.32309	11451
268.34424	11439
268.36542	11534
268.38657	11545
268.40771	11616
268.42886	11608
268.45001	11689
268.47119	11653
268.49234	11760
268.51349	11664
268.53464	11668
268.55579	11636
268.57693	11626
268.59808	11612
268.61926	11715
268.64041	11780
268.66156	11796
268.68271	11858
268.70386	11837
268.72501	11773
268.74615	11797
268.7673	11836
268.78845	11828
268.8096	11827
268.83078	11872
268.85193	11892
268.87308	11890
268.89423	11870
268.91537	11964
268.93652	11945
268.95767	12051
268.97882	12096
268.99997	12074
269.02112	12139
269.04227	12123
269.06342	12045
269.08456	12150
269.10571	12215
269.12686	12222
269.14801	12257
269.16916	12288
269.19031	12329
269.21143	12374
269.23257	12313
269.25372	12332
269.27487	12324
269.29602	12321
269.31717	12290
269.33832	12270
269.35947	12358
269.38062	12340
269.40176	12296
269.42291	12213
269.44403	12182
269.46518	12177
269.48633	12201
269.50748	12263
269.52863	12397
269.54977	12300
269.57089	12285
269.59204	12271
269.61319	12313
269.63434	12353
269.65549	12362
269.67661	12464
269.69775	12450
269.7189	12451
269.74005	12461
269.7612	12439
269.78232	12501
269.80347	12520
269.82462	12440
269.84576	12355
269.86688	12421
269.88803	12543
269.90918	12505
269.9303	12542
269.95145	12487
269.9726	12532
269.99371	12390
270.01486	12351
270.03601	12299
270.05716	12330
270.07828	12376
270.09943	12486
270.12054	12459
270.14169	12440
270.16284	12363
270.18396	12449
270.20511	12433
270.22626	12390
270.24738	12458
270.26852	12516
270.28964	12598
270.31079	12640
270.33194	12561
270.35306	12585
270.37421	12679
270.39532	12640
270.41647	12717
270.43759	12754
270.45874	12768
270.47986	12738
270.50101	12695
270.52213	12682
270.54327	12712
270.56439	12810
270.58554	12806
270.60666	12790
270.62781	12896
270.64893	12931
270.67007	13041
270.69119	12957
270.71234	12936
270.73346	13003
270.75461	13010
270.77573	13059
270.79684	13150
270.81799	13237
270.83911	13140
270.86026	13066
270.88138	13080
270.9025	13112
270.92365	13126
270.94476	13193
270.96591	13321
270.98703	13255
271.00815	13154
271.0293	13132
271.05042	13204
271.07153	13166
271.09268	13251
271.1138	13281
271.13492	13217
271.15607	13199
271.17719	13225
271.1983	13207
271.21942	13159
271.24057	13176
271.26169	13189
271.28281	13251
271.30396	13398
271.32507	13389
271.34619	13337
271.36731	13330
271.38843	13267
271.40958	13220
271.43069	13228
271.45181	13114
271.47293	13115
271.49408	13104
271.5152	13104
271.53632	13160
271.55743	13225
271.57855	13266
271.59967	13198
271.62082	13150
271.64194	13147
271.66306	13193
271.68417	13163
271.70529	13355
271.72641	13484
271.74753	13487
271.76865	13541
271.78979	13534
271.81091	13605
271.83203	13606
271.85315	13527
271.87427	13554
271.89539	13527
271.9165	13550
271.93762	13540
271.95874	13500
271.97986	13482
272.00098	13446
272.02209	13442
272.04321	13484
272.06433	13631
272.08545	13724
272.10657	13770
272.12769	13731
272.1488	13605
272.16992	13688
272.19104	13750
272.21216	13824
272.23328	13901
272.25439	13955
272.27551	14007
272.29663	14052
272.31775	13972
272.33884	13947
272.35995	13853
272.38107	13874
272.40219	13954
272.42331	13974
272.44443	13957
272.46555	13894
272.48666	13911
272.50778	13950
272.52887	14020
272.54999	13861
272.57111	13862
272.59222	13858
272.61334	13777
272.63446	13848
272.65555	13829
272.67667	13848
272.69778	13996
272.7189	14013
272.73999	14061
272.76111	14075
272.78223	14098
272.80334	14090
272.82446	14045
272.84555	14029
272.86667	14044
272.88779	14033
272.90887	14074
272.92999	14010
272.95111	13920
272.97223	13948
272.99332	13940
273.01443	14034
273.03555	13993
273.05664	13933
273.07776	13928
273.09888	13839
273.11996	13884
273.14108	13935
273.1622	14118
273.18329	14232
273.20441	14142
273.22549	14134
273.24661	14182
273.26773	14129
273.28882	14080
273.30994	14116
273.33102	14169
273.35214	14127
273.37323	14139
273.39435	14071
273.41547	14054
273.43655	13954
273.45767	13981
273.47876	14148
273.49988	14293
273.52097	14320
273.54208	14328
273.56317	14149
273.58429	14139
273.60538	14226
273.6265	14319
273.64758	14426
273.6687	14490
273.68979	14541
273.71091	14582
273.73199	14462
273.75308	14507
273.7742	14600
273.79529	14604
273.81641	14684
273.83749	14680
273.85858	14576
273.8797	14550
273.90079	14581
273.92191	14598
273.94299	14624
273.96408	14559
273.9852	14495
274.00629	14563
274.02737	14534
274.04849	14594
274.06958	14603
274.09067	14744
274.11179	14781
274.13287	14707
274.15396	14915
274.17508	14934
274.19617	15017
274.21725	14943
274.23834	15029
274.25946	15010
274.28055	14945
274.30164	14980
274.32272	14933
274.34384	14978
274.36493	14970
274.38602	14833
274.4071	15009
274.42822	15024
274.44931	14984
274.4704	14953
274.49149	14912
274.51257	14906
274.53366	14905
274.55478	14900
274.57587	14936
274.59695	14898
274.61804	14914
274.63913	14803
274.66022	14852
274.6813	15045
274.70242	15024
274.72351	15041
274.7446	15098
274.76569	15100
274.78677	15079
274.80786	15090
274.82895	15094
274.85004	15129
274.87112	15305
274.89221	15245
274.9133	15276
274.93439	15397
274.95547	15438
274.97656	15465
274.99765	15531
275.01874	15513
275.03983	15507
275.06091	15520
275.082	15555
275.10309	15570
275.12418	15618
275.14526	15573
275.16635	15521
275.18744	15395
275.20853	15387
275.22961	15494
275.2507	15546
275.27179	15645
275.29288	15550
275.31396	15525
275.33502	15591
275.35611	15608
275.3772	15630
275.39828	15678
275.41937	15699
275.44046	15735
275.46155	15762
275.4826	15703
275.50369	15738
275.52478	15774
275.54587	15743
275.56696	15677
275.58804	15650
275.6091	15788
275.63019	15850
275.65128	15718
275.67236	15643
275.69345	15663
275.71451	15691
275.7356	15636
275.75668	15468
275.77777	15571
275.79883	15538
275.81992	15529
275.841	15548
275.86206	15594
275.88315	15655
275.90424	15654
275.92529	15627
275.94638	15599
275.96747	15586
275.98853	15571
276.00961	15706
276.0307	15747
276.05176	15762
276.07285	15790
276.09393	15777
276.11499	15924
276.13608	15995
276.15717	15989
276.17822	16067
276.19931	16054
276.22037	15921
276.24146	15911
276.26251	15910
276.2836	16039
276.30469	16111
276.32574	16188
276.34683	16267
276.36789	16495
276.38898	16542
276.41003	16477
276.43112	16387
276.45218	16345
276.47327	16344
276.49432	16329
276.51541	16295
276.53647	16453
276.55756	16507
276.57861	16463
276.5997	16494
276.62076	16491
276.64182	16449
276.6629	16448
276.68396	16575
276.70505	16613
276.7261	16564
276.74719	16554
276.76825	16551
276.78931	16652
276.81039	16704
276.83145	16693
276.85251	16752
276.8736	16734
276.89465	16682
276.91574	16607
276.9368	16602
276.95786	16685
276.97891	16724
277	16739
277.02106	16844
277.04211	16878
277.0632	17020
277.08426	16988
277.10532	17131
277.1264	17178
277.14746	17070
277.16852	17062
277.18958	17140
277.21066	17068
277.23172	17007
277.25278	16997
277.27383	17130
277.29489	17131
277.31598	17208
277.33704	17147
277.35809	17089
277.37915	17170
277.40021	17117
277.42126	17331
277.44235	17519
277.46341	17690
277.48447	17670
277.50552	17572
277.52658	17602
277.54764	17649
277.5687	17712
277.58978	17656
277.61084	17710
277.6319	17727
277.65295	17749
277.67401	17634
277.69507	17590
277.71613	17494
277.73718	17438
277.75824	17533
277.7793	17860
277.80035	17942
277.82141	17956
277.84247	17912
277.86353	17879
277.88458	17864
277.90564	18017
277.9267	18117
277.94775	18273
277.96881	18417
277.98987	18417
278.01093	18322
278.03198	18311
278.05304	18456
278.0741	18404
278.09515	18451
278.11621	18432
278.13727	18441
278.15833	18413
278.17935	18379
278.20041	18334
278.22147	18324
278.24252	18417
278.26358	18353
278.28464	18296
278.30569	18416
278.32672	18315
278.34778	18208
278.36884	18295
278.38989	18392
278.41095	18470
278.43201	18566
278.45303	18765
278.47409	18755
278.49515	18703
278.5162	18700
278.53723	18724
278.55829	18623
278.57935	18509
278.6004	18439
278.62143	18355
278.64249	18390
278.66354	18198
278.6846	18213
278.70563	18158
278.72668	18260
278.74774	18342
278.76877	18297
278.78983	18407
278.81088	18430
278.83191	18321
278.85297	18406
278.87402	18439
278.89505	18651
278.91611	18880
278.93716	18784
278.95819	18801
278.97925	18825
279.00027	18868
279.02133	18848
279.04239	18878
279.06342	18893
279.08447	18817
279.1055	18776
279.12656	18776
279.14758	18697
279.16864	18705
279.1897	18845
279.21072	19017
279.23178	19215
279.25281	19248
279.27386	19175
279.29489	19120
279.31595	19110
279.33698	19214
279.35803	19343
279.37906	19400
279.40009	19584
279.42114	19678
279.44217	19656
