Date and Time:                Thu Oct 27 14:33:28.000 2022
Software Version:             4.31.30023.0
Temperature (C):              -40
Model:                        DU940P_BU2
Data Type:                    Counts
Acquisition Mode:             Single Scan
Trigger Mode:                 Internal
Exposure Time (secs):         0.25
Readout Mode:                 Full Vertical Binning
Horizontal binning:           1
Extended Dynamic Range:       off
Horizontally flipped:         false
Vertical Shift Speed (usecs): 14.51
Pixel Readout Rate (MHz):     3
Baseline Clamp:               ON
Clock Amplitude:              Normal
Output Amplifier:             High Capacity
Serial Number:                23634
Pre-Amplifier Gain:           1.000000
Spurious Noise Filter Mode:   No Filter
Photon counted:               false
Data Averaging Filter Mode:   No Filter
SR500i:
Serial Number:                
Wavelength (nm):              277.1
Grating Groove Density (l/mm):1199.47
Grating Blaze:                500
Output Flipper Port:          Direct
Accessory Output Port 1:      Off
Accessory Output Port 2:      Off
Accessory Output Port 3:      Off
Accessory Input Port:         On



255.43948	4052
255.46075	3885
255.48203	3879
255.5033	3878
255.52457	3889
255.54584	3904
255.56711	3891
255.58838	3896
255.60965	3878
255.63092	3883
255.65221	3892
255.67348	3860
255.69475	3845
255.71602	3855
255.73729	3929
255.75854	3875
255.77982	3889
255.80109	3921
255.82236	3921
255.84363	3930
255.8649	3918
255.88617	3916
255.90744	3919
255.92871	3943
255.94998	3926
255.97125	3948
255.99251	3946
256.01379	3957
256.03506	3993
256.0563	3972
256.07758	3990
256.09885	4052
256.12012	4006
256.14139	4014
256.16266	4021
256.18393	4032
256.2052	4019
256.22644	4061
256.24771	4041
256.26898	4048
256.29025	4074
256.31152	4026
256.33279	4008
256.35403	4021
256.37531	4060
256.39658	4060
256.41785	4076
256.43912	4078
256.46036	4088
256.48163	4082
256.5029	4067
256.52417	4086
256.54544	4112
256.56668	4127
256.58795	4123
256.60922	4141
256.63049	4119
256.65173	4134
256.673	4165
256.69427	4176
256.71552	4190
256.73679	4169
256.75806	4173
256.77933	4193
256.80057	4166
256.82184	4173
256.84311	4177
256.86435	4138
256.88562	4140
256.90689	4114
256.92813	4100
256.9494	4102
256.97067	4114
256.99191	4144
257.01318	4138
257.03445	4171
257.05569	4119
257.07697	4133
257.09821	4142
257.11948	4161
257.14075	4166
257.16199	4184
257.18326	4172
257.2045	4216
257.22577	4218
257.24704	4225
257.26828	4237
257.28955	4237
257.31079	4203
257.33206	4239
257.3533	4243
257.37457	4266
257.39581	4235
257.41708	4221
257.43832	4240
257.45959	4261
257.48083	4259
257.50211	4248
257.52335	4304
257.54462	4316
257.56586	4304
257.58713	4297
257.60837	4325
257.62964	4330
257.65088	4321
257.67215	4324
257.69339	4381
257.71466	4407
257.7359	4392
257.75714	4415
257.77841	4381
257.79965	4382
257.82092	4416
257.84216	4387
257.86343	4442
257.88467	4429
257.90591	4402
257.92719	4424
257.94843	4387
257.96967	4432
257.99094	4437
258.01218	4458
258.03342	4447
258.05469	4419
258.07593	4432
258.09717	4421
258.11844	4421
258.13968	4417
258.16092	4426
258.18219	4456
258.20343	4482
258.22467	4498
258.24594	4469
258.26718	4461
258.28842	4462
258.30966	4449
258.33093	4453
258.35217	4440
258.37341	4462
258.39465	4463
258.41592	4424
258.43716	4442
258.4584	4490
258.47964	4480
258.50092	4472
258.52216	4465
258.5434	4498
258.56464	4509
258.58588	4529
258.60715	4560
258.62839	4562
258.64963	4603
258.67087	4615
258.69211	4604
258.71335	4628
258.73462	4632
258.75586	4640
258.7771	4610
258.79834	4672
258.81958	4624
258.84082	4625
258.86206	4618
258.8833	4650
258.90457	4668
258.92581	4659
258.94705	4679
258.96829	4736
258.98953	4733
259.01077	4752
259.03201	4751
259.05325	4730
259.07449	4776
259.09573	4774
259.11697	4815
259.13821	4870
259.15945	4891
259.18069	4919
259.20193	4897
259.22318	4952
259.24442	4900
259.26566	4914
259.2869	4918
259.30814	4923
259.32938	4936
259.35062	4940
259.37186	4951
259.3931	4962
259.41434	4978
259.43558	4941
259.45682	4901
259.47806	4897
259.4993	4935
259.52054	4962
259.54178	4955
259.56302	4949
259.58426	4966
259.60547	5004
259.62671	5035
259.64795	5061
259.66919	5033
259.69043	5084
259.71167	5095
259.73291	5128
259.75415	5108
259.77536	5096
259.7966	5109
259.81784	5121
259.83908	5088
259.86032	5108
259.88156	5094
259.90277	5144
259.92401	5146
259.94525	5157
259.96649	5200
259.98773	5161
260.00894	5155
260.03018	5150
260.05142	5178
260.07266	5229
260.09387	5221
260.11511	5263
260.13635	5287
260.15759	5301
260.1788	5273
260.20004	5246
260.22128	5233
260.24252	5250
260.26373	5256
260.28497	5289
260.30621	5283
260.32742	5285
260.34866	5255
260.3699	5285
260.39111	5317
260.41235	5349
260.43359	5388
260.4548	5412
260.47604	5377
260.49728	5397
260.51849	5402
260.53973	5390
260.56097	5483
260.58218	5494
260.60342	5540
260.62463	5483
260.64587	5462
260.66711	5480
260.68832	5487
260.70956	5557
260.73077	5539
260.75201	5526
260.77322	5510
260.79446	5472
260.81567	5471
260.83691	5513
260.85815	5530
260.87936	5513
260.9006	5443
260.92181	5452
260.94305	5416
260.96426	5454
260.9855	5512
261.00671	5523
261.02795	5520
261.04916	5538
261.0704	5581
261.09161	5582
261.11282	5598
261.13406	5533
261.15527	5549
261.17651	5569
261.19772	5534
261.21896	5567
261.24017	5567
261.26138	5550
261.28262	5543
261.30383	5524
261.32507	5553
261.34628	5580
261.36749	5532
261.38873	5495
261.40994	5466
261.43118	5461
261.45239	5496
261.4736	5487
261.49484	5471
261.51605	5522
261.53726	5513
261.5585	5509
261.57971	5508
261.60092	5556
261.62216	5522
261.64337	5510
261.66458	5511
261.68579	5493
261.70703	5507
261.72824	5515
261.74945	5540
261.77069	5557
261.7919	5555
261.81311	5523
261.83432	5517
261.85556	5590
261.87677	5625
261.89798	5622
261.91919	5578
261.9404	5591
261.96164	5560
261.98285	5584
262.00406	5593
262.02527	5580
262.04648	5615
262.06772	5592
262.08893	5640
262.11014	5613
262.13135	5663
262.15256	5637
262.17377	5641
262.19501	5628
262.21622	5669
262.23743	5667
262.25864	5643
262.27985	5669
262.30106	5719
262.32227	5676
262.34348	5731
262.36469	5765
262.38589	5692
262.40714	5685
262.42834	5706
262.44955	5717
262.47076	5758
262.49197	5745
262.51318	5778
262.53439	5808
262.5556	5809
262.57681	5824
262.59802	5872
262.61923	5848
262.64044	5898
262.66165	5855
262.68286	5878
262.70407	5859
262.72528	5846
262.74649	5883
262.7677	5897
262.78891	5918
262.81012	5882
262.83133	5859
262.85254	5873
262.87375	5889
262.89493	5905
262.91614	5882
262.93735	5913
262.95856	5946
262.97977	6011
263.00098	6030
263.02219	6000
263.0434	6040
263.06461	6057
263.08582	6089
263.10699	6114
263.1282	6147
263.14941	6146
263.17062	6112
263.19183	6100
263.21304	6035
263.23422	6078
263.25543	6088
263.27664	6136
263.29785	6205
263.31906	6188
263.34027	6162
263.36145	6131
263.38266	6127
263.40387	6149
263.42508	6180
263.44626	6178
263.46747	6256
263.48868	6270
263.50989	6294
263.53107	6250
263.55228	6245
263.57349	6232
263.5947	6250
263.61588	6276
263.63708	6284
263.65829	6277
263.67947	6265
263.70068	6225
263.72189	6243
263.74307	6233
263.76428	6271
263.78549	6241
263.80667	6240
263.82788	6229
263.84909	6279
263.87027	6212
263.89148	6260
263.91266	6244
263.93387	6284
263.95508	6346
263.97626	6386
263.99747	6360
264.01868	6379
264.03986	6377
264.06107	6352
264.08224	6316
264.10345	6280
264.12463	6289
264.14584	6346
264.16702	6294
264.18823	6320
264.20941	6317
264.23062	6371
264.25183	6373
264.27301	6357
264.29422	6340
264.3154	6385
264.33661	6352
264.35779	6403
264.379	6443
264.40018	6520
264.42136	6582
264.44257	6529
264.46375	6538
264.48495	6519
264.50613	6534
264.52734	6482
264.54852	6506
264.56973	6498
264.59091	6533
264.61209	6562
264.6333	6506
264.65448	6509
264.67569	6531
264.69687	6560
264.71805	6581
264.73926	6677
264.76044	6711
264.78162	6656
264.80283	6678
264.82401	6636
264.84518	6635
264.86639	6749
264.88757	6789
264.90875	6857
264.92996	6878
264.95114	6882
264.97232	6892
264.99353	6876
265.01471	6818
265.03589	6859
265.05707	6869
265.07828	6896
265.09946	6846
265.12064	6835
265.14182	6823
265.16302	6839
265.1842	6850
265.20538	6850
265.22656	6825
265.24774	6840
265.26895	6804
265.29013	6855
265.31131	6843
265.33249	6853
265.35367	6828
265.37488	6919
265.39606	6942
265.41724	7025
265.43842	6986
265.45959	6988
265.48077	7012
265.50195	6984
265.52316	7014
265.54434	7021
265.56552	7019
265.5867	7045
265.60788	6980
265.62906	7002
265.65024	6996
265.67142	7031
265.6926	7018
265.71378	7025
265.73499	7021
265.75616	7037
265.77734	7005
265.79852	6985
265.8197	6991
265.84088	7012
265.86206	7043
265.88324	7070
265.90442	7121
265.9256	7129
265.94678	7110
265.96796	7060
265.98914	7076
266.01031	7091
266.03149	7084
266.05267	7168
266.07385	7180
266.095	7171
266.11618	7117
266.13736	7096
266.15854	7206
266.17972	7264
266.2009	7219
266.22208	7214
266.24326	7263
266.26443	7234
266.28561	7216
266.30679	7339
266.32794	7325
266.34912	7410
266.3703	7383
266.39148	7396
266.41266	7420
266.43384	7411
266.45502	7476
266.47617	7507
266.49734	7460
266.51852	7480
266.5397	7498
266.56088	7461
266.58203	7450
266.60321	7531
266.62439	7548
266.64557	7476
266.66675	7458
266.6879	7428
266.70908	7447
266.73026	7512
266.75143	7570
266.77258	7542
266.79376	7554
266.81494	7547
266.83609	7576
266.85727	7620
266.87845	7611
266.89963	7590
266.92078	7595
266.94196	7626
266.96313	7664
266.98428	7628
267.00546	7639
267.02664	7701
267.04779	7666
267.06897	7564
267.09015	7642
267.1113	7684
267.13248	7665
267.15363	7633
267.1748	7696
267.19598	7660
267.21713	7682
267.23831	7616
267.25946	7573
267.28064	7550
267.30182	7538
267.32297	7574
267.34415	7609
267.3653	7618
267.38647	7627
267.40762	7565
267.4288	7594
267.44995	7577
267.47113	7626
267.49228	7664
267.51346	7685
267.53461	7776
267.55579	7758
267.57693	7722
267.59811	7752
267.61926	7840
267.64044	7797
267.66159	7798
267.68277	7825
267.70392	7862
267.72507	7809
267.74625	7793
267.7674	7742
267.78857	7782
267.80972	7813
267.8309	7780
267.85205	7856
267.8732	7881
267.89438	7928
267.91553	7933
267.93668	7906
267.95786	7978
267.979	7951
268.00015	7994
268.02133	8046
268.04248	8101
268.06363	8036
268.08481	8025
268.10596	8000
268.12711	8008
268.14828	8018
268.16943	8031
268.19058	8089
268.21176	8112
268.23291	8034
268.25406	8017
268.27521	7984
268.29639	8031
268.31754	7960
268.33868	7984
268.35983	8081
268.38101	8118
268.40216	8039
268.42331	7992
268.44446	8007
268.46561	8093
268.48679	8098
268.50793	8085
268.52908	8115
268.55023	8131
268.57138	8145
268.59253	8084
268.61371	7989
268.63486	7990
268.65601	7976
268.67715	7979
268.6983	8021
268.71945	8074
268.7406	8049
268.76175	8126
268.78293	8096
268.80408	8107
268.82523	8134
268.84637	8188
268.86752	8193
268.88867	8210
268.90982	8210
268.93097	8154
268.95212	8165
268.97327	8157
268.99442	8158
269.01556	8146
269.03671	8231
269.05786	8324
269.07901	8357
269.10016	8304
269.12131	8279
269.14246	8307
269.1636	8363
269.18475	8405
269.2059	8469
269.22705	8455
269.2482	8450
269.26935	8500
269.2905	8526
269.31165	8535
269.33279	8473
269.35394	8439
269.37506	8479
269.39621	8529
269.41736	8502
269.43851	8434
269.45966	8451
269.4808	8434
269.50195	8484
269.5231	8437
269.54422	8394
269.56537	8405
269.58652	8336
269.60767	8356
269.62881	8347
269.64996	8368
269.67108	8413
269.69223	8460
269.71338	8470
269.73453	8494
269.75568	8509
269.77679	8528
269.79794	8527
269.81909	8469
269.84024	8514
269.86136	8507
269.88251	8548
269.90366	8547
269.9248	8470
269.94592	8480
269.96707	8477
269.98822	8451
270.00934	8513
270.03049	8474
270.05164	8452
270.07275	8473
270.0939	8501
270.11505	8504
270.13617	8559
270.15732	8629
270.17847	8664
270.19958	8624
270.22073	8651
270.24188	8647
270.263	8627
270.28415	8576
270.30527	8558
270.32642	8587
270.34756	8606
270.36868	8664
270.38983	8655
270.41095	8663
270.4321	8600
270.45322	8698
270.47437	8704
270.49548	8795
270.51663	8777
270.53778	8740
270.5589	8739
270.58005	8683
270.60117	8810
270.62231	8776
270.64343	8878
270.66458	8991
270.6857	8992
270.70682	8904
270.72797	8953
270.74908	8965
270.77023	8966
270.79135	8975
270.8125	9000
270.83362	9008
270.85477	8964
270.87589	8940
270.897	8951
270.91815	8902
270.93927	8890
270.96042	8794
270.98154	8821
271.00266	8902
271.0238	8940
271.04492	8965
271.06604	8955
271.08719	8947
271.10831	8950
271.12943	9026
271.15057	9150
271.17169	9090
271.19281	9095
271.21396	9101
271.23508	9098
271.2562	9174
271.27734	9099
271.29846	9184
271.31958	9147
271.3407	9096
271.36185	9068
271.38297	9056
271.40408	9135
271.4252	9073
271.44635	9107
271.46747	9092
271.48859	9169
271.5097	9123
271.53082	9051
271.55197	9074
271.57309	9107
271.59421	9137
271.61533	9124
271.63644	9181
271.65756	9162
271.67871	9145
271.69983	9078
271.72095	9094
271.74207	9108
271.76318	9083
271.7843	9193
271.80542	9216
271.82654	9251
271.84766	9231
271.8688	9188
271.88992	9200
271.91104	9286
271.93216	9316
271.95328	9329
271.9744	9345
271.99551	9318
272.01663	9275
272.03775	9227
272.05887	9261
272.07999	9366
272.1011	9450
272.12222	9480
272.14334	9463
272.16446	9492
272.18558	9544
272.2067	9565
272.22781	9521
272.24893	9508
272.27005	9514
272.29117	9507
272.31229	9475
272.3334	9554
272.35452	9552
272.37564	9588
272.39673	9513
272.41785	9501
272.43896	9463
272.46008	9456
272.4812	9538
272.50232	9666
272.52344	9607
272.54456	9554
272.56564	9627
272.58676	9672
272.60788	9673
272.629	9661
272.65012	9651
272.67123	9628
272.69232	9619
272.71344	9637
272.73456	9620
272.75568	9691
272.77679	9709
272.79788	9648
272.819	9606
272.84012	9701
272.86124	9762
272.88232	9779
272.90344	9816
272.92456	9825
272.94568	9784
272.96677	9727
272.98788	9651
273.009	9583
273.03009	9563
273.05121	9536
273.07233	9618
273.09341	9680
273.11453	9739
273.13565	9702
273.15674	9627
273.17786	9657
273.19897	9612
273.22006	9690
273.24118	9691
273.2623	9794
273.28339	9830
273.3045	9803
273.32559	9736
273.34671	9854
273.36783	9865
273.38892	9867
273.41003	9919
273.43112	9929
273.45224	9951
273.47333	9887
273.49445	9805
273.51553	9737
273.53665	9729
273.55774	9744
273.57886	9849
273.59998	9949
273.62106	9981
273.64215	10012
273.66327	9986
273.68436	10029
273.70547	10091
273.72656	10119
273.74768	10169
273.76877	10269
273.78989	10285
273.81097	10265
273.83209	10231
273.85318	10189
273.87427	10240
273.89539	10215
273.91647	10243
273.93759	10302
273.95868	10261
273.97977	10249
274.00089	10218
274.02197	10252
274.04306	10198
274.06418	10239
274.08527	10274
274.10635	10324
274.12747	10310
274.14856	10213
274.16965	10218
274.19077	10226
274.21185	10291
274.23294	10307
274.25406	10382
274.27515	10423
274.29623	10454
274.31732	10408
274.33844	10352
274.35953	10300
274.38062	10228
274.4017	10224
274.42282	10256
274.44391	10347
274.465	10372
274.48608	10345
274.50717	10326
274.52829	10299
274.54938	10307
274.57047	10340
274.59155	10344
274.61264	10350
274.63373	10420
274.65485	10417
274.67593	10409
274.69702	10359
274.71811	10373
274.7392	10328
274.76028	10326
274.78137	10441
274.80246	10557
274.82355	10563
274.84467	10484
274.86575	10469
274.88684	10471
274.90793	10561
274.92902	10592
274.9501	10694
274.97119	10765
274.99228	10756
275.01337	10704
275.03445	10783
275.05554	10833
275.07663	10827
275.09772	10865
275.1188	10865
275.13989	10876
275.16098	10860
275.18207	10833
275.20316	10897
275.22424	10795
275.24533	10838
275.26642	10864
275.28751	10760
275.30856	10773
275.32965	10734
275.35074	10770
275.37183	10839
275.39291	10867
275.414	10869
275.43509	10954
275.45618	10993
275.47726	10999
275.49832	11051
275.51941	11098
275.5405	11076
275.56158	11079
275.58267	10996
275.60376	11040
275.62482	11083
275.6459	11016
275.66699	10984
275.68808	10940
275.70917	10959
275.73022	10992
275.75131	11015
275.7724	10961
275.79349	10998
275.81454	10962
275.83563	10943
275.85672	10947
275.87778	11073
275.89886	11176
275.91995	11128
275.94104	11173
275.9621	11125
275.98318	11127
276.00427	11045
276.02533	11076
276.04642	11125
276.0675	11129
276.08856	11191
276.10965	11231
276.13074	11236
276.15179	11193
276.17288	11226
276.19394	11282
276.21503	11373
276.23611	11456
276.25717	11526
276.27826	11545
276.29932	11421
276.3204	11363
276.34149	11375
276.36255	11456
276.38364	11571
276.40469	11710
276.42578	11741
276.44684	11739
276.46793	11822
276.48898	11732
276.51007	11713
276.53113	11723
276.55222	11705
276.57327	11708
276.59436	11617
276.61542	11604
276.63651	11621
276.65756	11534
276.67862	11502
276.69971	11552
276.72076	11571
276.74185	11730
276.76291	11777
276.784	11775
276.80505	11702
276.82611	11667
276.8472	11792
276.86826	11879
276.88934	12044
276.9104	11972
276.93146	11973
276.95255	12020
276.9736	12116
276.99466	12127
277.01575	11966
277.0368	11979
277.05786	11961
277.07895	11941
277.10001	11986
277.12106	12070
277.14212	12075
277.16321	12155
277.18427	12295
277.20532	12320
277.22638	12371
277.24747	12368
277.26852	12184
277.28958	12200
277.31064	12201
277.33173	12188
277.35278	12333
277.37384	12344
277.3949	12400
277.41595	12347
277.43704	12245
277.4581	12228
277.47916	12264
277.50021	12347
277.52127	12439
277.54233	12524
277.56339	12536
277.58447	12465
277.60553	12476
277.62659	12564
277.64764	12606
277.6687	12644
277.68976	12665
277.71082	12663
277.73187	12688
277.75293	12614
277.77399	12675
277.79504	12600
277.8161	12641
277.83716	12682
277.85822	12724
277.8793	12752
277.90036	12816
277.92142	12810
277.94247	12883
277.96353	12876
277.98456	13029
278.00562	12977
278.02667	13013
278.04773	13016
278.06879	13085
278.08984	12978
278.1109	12937
278.13196	12955
278.15302	13001
278.17407	13050
278.19513	13193
278.21619	13204
278.23724	13188
278.2583	13265
278.27933	13200
278.30038	13159
278.32144	13097
278.3425	13238
278.36356	13264
278.38461	13254
278.40567	13244
278.4267	13141
278.44775	13167
278.46881	13246
278.48987	13277
278.51093	13294
278.53195	13262
278.55301	13393
278.57407	13398
278.59512	13373
278.61618	13373
278.63721	13348
278.65826	13198
278.67932	13133
278.70035	13017
278.72141	12912
278.74246	12884
278.76352	12842
278.78455	12841
278.8056	12892
278.82666	12971
278.84769	13005
278.86874	12918
278.8898	12963
278.91083	13040
278.93188	12946
278.95294	13061
278.97397	13102
278.99503	13273
279.01605	13354
279.03711	13243
279.05817	13267
279.07919	13388
279.10025	13458
279.12128	13496
279.14233	13475
279.16339	13554
279.18442	13490
279.20547	13330
279.2265	13265
279.24756	13290
279.26859	13311
279.28964	13356
279.31067	13446
279.33173	13600
279.35275	13691
279.37381	13561
279.39484	13545
279.41589	13566
279.43692	13681
279.45798	13826
279.479	13894
279.50006	13922
279.52109	14006
279.54211	14033
279.56317	13926
279.5842	13888
279.60526	13908
279.62628	13853
279.64731	13845
279.66837	13927
279.68939	13920
279.71045	13930
279.73148	13936
279.7525	13915
279.77356	13938
279.79459	13922
279.81561	14006
279.83667	13940
279.8577	13940
279.87872	13869
279.89975	13876
279.92081	13881
279.94183	13935
279.96286	13979
279.98392	14065
280.00494	14243
280.02597	14261
