Date and Time:                Thu Oct 27 14:33:15.000 2022
Software Version:             4.31.30023.0
Temperature (C):              -40
Model:                        DU940P_BU2
Data Type:                    Counts
Acquisition Mode:             Single Scan
Trigger Mode:                 Internal
Exposure Time (secs):         0.25
Readout Mode:                 Full Vertical Binning
Horizontal binning:           1
Extended Dynamic Range:       off
Horizontally flipped:         false
Vertical Shift Speed (usecs): 14.51
Pixel Readout Rate (MHz):     3
Baseline Clamp:               ON
Clock Amplitude:              Normal
Output Amplifier:             High Capacity
Serial Number:                23634
Pre-Amplifier Gain:           1.000000
Spurious Noise Filter Mode:   No Filter
Photon counted:               false
Data Averaging Filter Mode:   No Filter
SR500i:
Serial Number:                
Wavelength (nm):              277.1
Grating Groove Density (l/mm):1199.47
Grating Blaze:                500
Output Flipper Port:          Direct
Accessory Output Port 1:      Off
Accessory Output Port 2:      Off
Accessory Output Port 3:      Off
Accessory Input Port:         On



255.43948	4051
255.46075	3884
255.48203	3887
255.5033	3857
255.52457	3883
255.54584	3904
255.56711	3913
255.58838	3892
255.60965	3865
255.63092	3897
255.65221	3888
255.67348	3835
255.69475	3823
255.71602	3856
255.73729	3878
255.75854	3906
255.77982	3883
255.80109	3921
255.82236	3933
255.84363	3916
255.8649	3912
255.88617	3909
255.90744	3942
255.92871	3955
255.94998	3944
255.97125	3936
255.99251	3970
256.01379	3946
256.03506	3950
256.0563	3959
256.07758	3976
256.09885	4012
256.12012	4005
256.14139	4008
256.16266	4001
256.18393	3990
256.2052	4027
256.22644	4046
256.24771	4029
256.26898	4075
256.29025	4025
256.31152	4022
256.33279	4027
256.35403	3986
256.37531	4034
256.39658	4062
256.41785	4075
256.43912	4071
256.46036	4073
256.48163	4107
256.5029	4066
256.52417	4092
256.54544	4080
256.56668	4108
256.58795	4098
256.60922	4136
256.63049	4134
256.65173	4128
256.673	4169
256.69427	4171
256.71552	4157
256.73679	4157
256.75806	4178
256.77933	4174
256.80057	4153
256.82184	4156
256.84311	4184
256.86435	4161
256.88562	4142
256.90689	4109
256.92813	4107
256.9494	4113
256.97067	4141
256.99191	4119
257.01318	4120
257.03445	4146
257.05569	4127
257.07697	4123
257.09821	4146
257.11948	4138
257.14075	4163
257.16199	4167
257.18326	4206
257.2045	4210
257.22577	4204
257.24704	4226
257.26828	4212
257.28955	4209
257.31079	4195
257.33206	4245
257.3533	4240
257.37457	4246
257.39581	4227
257.41708	4210
257.43832	4289
257.45959	4244
257.48083	4241
257.50211	4261
257.52335	4293
257.54462	4319
257.56586	4331
257.58713	4315
257.60837	4305
257.62964	4306
257.65088	4334
257.67215	4346
257.69339	4380
257.71466	4406
257.7359	4386
257.75714	4377
257.77841	4401
257.79965	4409
257.82092	4387
257.84216	4399
257.86343	4439
257.88467	4411
257.90591	4387
257.92719	4424
257.94843	4415
257.96967	4433
257.99094	4437
258.01218	4418
258.03342	4465
258.05469	4421
258.07593	4427
258.09717	4381
258.11844	4401
258.13968	4424
258.16092	4392
258.18219	4444
258.20343	4448
258.22467	4463
258.24594	4456
258.26718	4482
258.28842	4425
258.30966	4477
258.33093	4453
258.35217	4445
258.37341	4453
258.39465	4440
258.41592	4435
258.43716	4447
258.4584	4454
258.47964	4468
258.50092	4483
258.52216	4478
258.5434	4487
258.56464	4511
258.58588	4516
258.60715	4562
258.62839	4559
258.64963	4566
258.67087	4586
258.69211	4593
258.71335	4617
258.73462	4627
258.75586	4604
258.7771	4624
258.79834	4644
258.81958	4643
258.84082	4622
258.86206	4632
258.8833	4633
258.90457	4664
258.92581	4674
258.94705	4675
258.96829	4747
258.98953	4740
259.01077	4748
259.03201	4772
259.05325	4746
259.07449	4751
259.09573	4788
259.11697	4823
259.13821	4860
259.15945	4886
259.18069	4898
259.20193	4888
259.22318	4889
259.24442	4881
259.26566	4895
259.2869	4894
259.30814	4905
259.32938	4885
259.35062	4936
259.37186	4930
259.3931	4927
259.41434	4919
259.43558	4897
259.45682	4899
259.47806	4890
259.4993	4896
259.52054	4935
259.54178	4943
259.56302	4893
259.58426	4952
259.60547	5016
259.62671	5047
259.64795	5054
259.66919	5061
259.69043	5086
259.71167	5046
259.73291	5085
259.75415	5088
259.77536	5087
259.7966	5103
259.81784	5133
259.83908	5081
259.86032	5058
259.88156	5103
259.90277	5142
259.92401	5126
259.94525	5152
259.96649	5161
259.98773	5153
260.00894	5142
260.03018	5137
260.05142	5152
260.07266	5201
260.09387	5218
260.11511	5279
260.13635	5237
260.15759	5295
260.1788	5267
260.20004	5221
260.22128	5253
260.24252	5241
260.26373	5249
260.28497	5303
260.30621	5294
260.32742	5278
260.34866	5262
260.3699	5282
260.39111	5308
260.41235	5376
260.43359	5392
260.4548	5401
260.47604	5392
260.49728	5369
260.51849	5387
260.53973	5402
260.56097	5424
260.58218	5509
260.60342	5504
260.62463	5463
260.64587	5456
260.66711	5488
260.68832	5482
260.70956	5514
260.73077	5534
260.75201	5539
260.77322	5492
260.79446	5477
260.81567	5505
260.83691	5497
260.85815	5537
260.87936	5495
260.9006	5419
260.92181	5442
260.94305	5429
260.96426	5438
260.9855	5519
261.00671	5504
261.02795	5518
261.04916	5496
261.0704	5559
261.09161	5571
261.11282	5562
261.13406	5536
261.15527	5554
261.17651	5552
261.19772	5520
261.21896	5529
261.24017	5514
261.26138	5554
261.28262	5519
261.30383	5490
261.32507	5552
261.34628	5548
261.36749	5517
261.38873	5454
261.40994	5474
261.43118	5468
261.45239	5465
261.4736	5444
261.49484	5427
261.51605	5458
261.53726	5516
261.5585	5497
261.57971	5511
261.60092	5536
261.62216	5533
261.64337	5508
261.66458	5492
261.68579	5521
261.70703	5484
261.72824	5484
261.74945	5535
261.77069	5564
261.7919	5565
261.81311	5532
261.83432	5511
261.85556	5568
261.87677	5605
261.89798	5617
261.91919	5602
261.9404	5570
261.96164	5569
261.98285	5581
262.00406	5591
262.02527	5586
262.04648	5595
262.06772	5613
262.08893	5601
262.11014	5618
262.13135	5631
262.15256	5609
262.17377	5640
262.19501	5657
262.21622	5619
262.23743	5635
262.25864	5664
262.27985	5694
262.30106	5687
262.32227	5689
262.34348	5708
262.36469	5723
262.38589	5728
262.40714	5716
262.42834	5680
262.44955	5684
262.47076	5663
262.49197	5786
262.51318	5762
262.53439	5797
262.5556	5782
262.57681	5792
262.59802	5823
262.61923	5856
262.64044	5908
262.66165	5859
262.68286	5823
262.70407	5840
262.72528	5837
262.74649	5858
262.7677	5900
262.78891	5915
262.81012	5891
262.83133	5860
262.85254	5902
262.87375	5905
262.89493	5874
262.91614	5901
262.93735	5946
262.95856	5980
262.97977	6007
263.00098	5992
263.02219	6018
263.0434	6024
263.06461	6048
263.08582	6048
263.10699	6084
263.1282	6123
263.14941	6121
263.17062	6081
263.19183	6041
263.21304	6070
263.23422	6041
263.25543	6081
263.27664	6128
263.29785	6202
263.31906	6198
263.34027	6190
263.36145	6149
263.38266	6116
263.40387	6132
263.42508	6182
263.44626	6190
263.46747	6252
263.48868	6273
263.50989	6257
263.53107	6215
263.55228	6222
263.57349	6234
263.5947	6203
263.61588	6272
263.63708	6312
263.65829	6283
263.67947	6297
263.70068	6227
263.72189	6244
263.74307	6211
263.76428	6230
263.78549	6280
263.80667	6250
263.82788	6240
263.84909	6271
263.87027	6218
263.89148	6193
263.91266	6263
263.93387	6296
263.95508	6323
263.97626	6325
263.99747	6383
264.01868	6332
264.03986	6370
264.06107	6363
264.08224	6287
264.10345	6310
264.12463	6310
264.14584	6335
264.16702	6272
264.18823	6304
264.20941	6343
264.23062	6344
264.25183	6352
264.27301	6368
264.29422	6369
264.3154	6356
264.33661	6353
264.35779	6365
264.379	6441
264.40018	6517
264.42136	6533
264.44257	6526
264.46375	6531
264.48495	6563
264.50613	6514
264.52734	6487
264.54852	6499
264.56973	6464
264.59091	6523
264.61209	6540
264.6333	6551
264.65448	6497
264.67569	6509
264.69687	6558
264.71805	6577
264.73926	6621
264.76044	6662
264.78162	6672
264.80283	6689
264.82401	6626
264.84518	6651
264.86639	6692
264.88757	6762
264.90875	6853
264.92996	6877
264.95114	6818
264.97232	6840
264.99353	6897
265.01471	6852
265.03589	6849
265.05707	6868
265.07828	6906
265.09946	6824
265.12064	6801
265.14182	6825
265.16302	6800
265.1842	6809
265.20538	6836
265.22656	6824
265.24774	6773
265.26895	6810
265.29013	6805
265.31131	6853
265.33249	6821
265.35367	6839
265.37488	6875
265.39606	6932
265.41724	6969
265.43842	6982
265.45959	7012
265.48077	6991
265.50195	6982
265.52316	6966
265.54434	6972
265.56552	6981
265.5867	6943
265.60788	7011
265.62906	6982
265.65024	6968
265.67142	6985
265.6926	7015
265.71378	7012
265.73499	7010
265.75616	7033
265.77734	7042
265.79852	6964
265.8197	7000
265.84088	6977
265.86206	7020
265.88324	7108
265.90442	7114
265.9256	7110
265.94678	7146
265.96796	7065
265.98914	7090
266.01031	7081
266.03149	7141
266.05267	7138
266.07385	7096
266.095	7154
266.11618	7116
266.13736	7096
266.15854	7171
266.17972	7208
266.2009	7221
266.22208	7237
266.24326	7240
266.26443	7239
266.28561	7210
266.30679	7275
266.32794	7305
266.34912	7312
266.3703	7401
266.39148	7392
266.41266	7367
266.43384	7373
266.45502	7451
266.47617	7448
266.49734	7442
266.51852	7431
266.5397	7438
266.56088	7435
266.58203	7504
266.60321	7524
266.62439	7522
266.64557	7507
266.66675	7413
266.6879	7424
266.70908	7406
266.73026	7486
266.75143	7568
266.77258	7546
266.79376	7532
266.81494	7546
266.83609	7576
266.85727	7556
266.87845	7578
266.89963	7592
266.92078	7611
266.94196	7605
266.96313	7590
266.98428	7607
267.00546	7622
267.02664	7631
267.04779	7653
267.06897	7576
267.09015	7625
267.1113	7671
267.13248	7674
267.15363	7667
267.1748	7661
267.19598	7658
267.21713	7630
267.23831	7578
267.25946	7552
267.28064	7601
267.30182	7565
267.32297	7533
267.34415	7615
267.3653	7644
267.38647	7608
267.40762	7594
267.4288	7560
267.44995	7595
267.47113	7620
267.49228	7641
267.51346	7701
267.53461	7748
267.55579	7745
267.57693	7696
267.59811	7692
267.61926	7789
267.64044	7816
267.66159	7796
267.68277	7812
267.70392	7852
267.72507	7789
267.74625	7810
267.7674	7745
267.78857	7731
267.80972	7811
267.8309	7786
267.85205	7836
267.8732	7920
267.89438	7910
267.91553	7909
267.93668	7944
267.95786	7961
267.979	7928
268.00015	7984
268.02133	7992
268.04248	8043
268.06363	8051
268.08481	7988
268.10596	7973
268.12711	8005
268.14828	8009
268.16943	7989
268.19058	8043
268.21176	8047
268.23291	8045
268.25406	8013
268.27521	7999
268.29639	7981
268.31754	7980
268.33868	7967
268.35983	8057
268.38101	8061
268.40216	8041
268.42331	8019
268.44446	8005
268.46561	8058
268.48679	8034
268.50793	8065
268.52908	8107
268.55023	8118
268.57138	8097
268.59253	8091
268.61371	8011
268.63486	7965
268.65601	7943
268.67715	8005
268.6983	8035
268.71945	8051
268.7406	8060
268.76175	8072
268.78293	8110
268.80408	8164
268.82523	8136
268.84637	8132
268.86752	8144
268.88867	8193
268.90982	8191
268.93097	8174
268.95212	8162
268.97327	8167
268.99442	8185
269.01556	8158
269.03671	8220
269.05786	8266
269.07901	8401
269.10016	8316
269.12131	8250
269.14246	8271
269.1636	8337
269.18475	8410
269.2059	8402
269.22705	8454
269.2482	8507
269.26935	8513
269.2905	8484
269.31165	8481
269.33279	8429
269.35394	8456
269.37506	8501
269.39621	8488
269.41736	8472
269.43851	8456
269.45966	8440
269.4808	8465
269.50195	8437
269.5231	8434
269.54422	8426
269.56537	8359
269.58652	8362
269.60767	8359
269.62881	8318
269.64996	8345
269.67108	8426
269.69223	8458
269.71338	8451
269.73453	8474
269.75568	8490
269.77679	8496
269.79794	8537
269.81909	8505
269.84024	8502
269.86136	8458
269.88251	8538
269.90366	8498
269.9248	8458
269.94592	8422
269.96707	8478
269.98822	8445
270.00934	8484
270.03049	8438
270.05164	8452
270.07275	8454
270.0939	8436
270.11505	8470
270.13617	8543
270.15732	8628
270.17847	8618
270.19958	8612
270.22073	8642
270.24188	8644
270.263	8622
270.28415	8565
270.30527	8584
270.32642	8563
270.34756	8632
270.36868	8632
270.38983	8607
270.41095	8577
270.4321	8630
270.45322	8624
270.47437	8700
270.49548	8746
270.51663	8793
270.53778	8776
270.5589	8699
270.58005	8719
270.60117	8714
270.62231	8805
270.64343	8832
270.66458	8983
270.6857	8958
270.70682	8943
270.72797	8970
270.74908	8958
270.77023	8941
270.79135	8967
270.8125	8987
270.83362	9001
270.85477	8923
270.87589	8900
270.897	8970
270.91815	8957
270.93927	8882
270.96042	8771
270.98154	8824
271.00266	8901
271.0238	8945
271.04492	8959
271.06604	8939
271.08719	8946
271.10831	8940
271.12943	9010
271.15057	9111
271.17169	9093
271.19281	9067
271.21396	9115
271.23508	9101
271.2562	9118
271.27734	9112
271.29846	9120
271.31958	9154
271.3407	9076
271.36185	8992
271.38297	9029
271.40408	9098
271.4252	9087
271.44635	9052
271.46747	9071
271.48859	9155
271.5097	9089
271.53082	9096
271.55197	9017
271.57309	9024
271.59421	9130
271.61533	9111
271.63644	9140
271.65756	9159
271.67871	9135
271.69983	9050
271.72095	9062
271.74207	9087
271.76318	9098
271.7843	9144
271.80542	9240
271.82654	9209
271.84766	9205
271.8688	9182
271.88992	9203
271.91104	9302
271.93216	9316
271.95328	9317
271.9744	9336
271.99551	9311
272.01663	9236
272.03775	9266
272.05887	9255
272.07999	9374
272.1011	9421
272.12222	9417
272.14334	9414
272.16446	9448
272.18558	9504
272.2067	9542
272.22781	9538
272.24893	9493
272.27005	9477
272.29117	9529
272.31229	9467
272.3334	9577
272.35452	9531
272.37564	9557
272.39673	9493
272.41785	9448
272.43896	9415
272.46008	9437
272.4812	9512
272.50232	9613
272.52344	9557
272.54456	9552
272.56564	9584
272.58676	9695
272.60788	9650
272.629	9661
272.65012	9688
272.67123	9613
272.69232	9659
272.71344	9603
272.73456	9608
272.75568	9667
272.77679	9675
272.79788	9629
272.819	9638
272.84012	9704
272.86124	9743
272.88232	9740
272.90344	9784
272.92456	9765
272.94568	9730
272.96677	9681
272.98788	9599
273.009	9596
273.03009	9559
273.05121	9532
273.07233	9617
273.09341	9671
273.11453	9735
273.13565	9654
273.15674	9620
273.17786	9609
273.19897	9615
273.22006	9638
273.24118	9735
273.2623	9810
273.28339	9805
273.3045	9782
273.32559	9753
273.34671	9824
273.36783	9815
273.38892	9884
273.41003	9868
273.43112	9948
273.45224	9932
273.47333	9816
273.49445	9751
273.51553	9747
273.53665	9753
273.55774	9755
273.57886	9780
273.59998	9936
273.62106	9946
273.64215	9991
273.66327	9947
273.68436	9949
273.70547	10063
273.72656	10142
273.74768	10117
273.76877	10202
273.78989	10236
273.81097	10270
273.83209	10194
273.85318	10219
273.87427	10243
273.89539	10192
273.91647	10208
273.93759	10274
273.95868	10194
273.97977	10245
274.00089	10238
274.02197	10185
274.04306	10279
274.06418	10256
274.08527	10284
274.10635	10274
274.12747	10264
274.14856	10209
274.16965	10157
274.19077	10212
274.21185	10255
274.23294	10318
274.25406	10367
274.27515	10418
274.29623	10465
274.31732	10396
274.33844	10306
274.35953	10252
274.38062	10232
274.4017	10203
274.42282	10274
274.44391	10310
274.465	10385
274.48608	10319
274.50717	10325
274.52829	10288
274.54938	10349
274.57047	10354
274.59155	10312
274.61264	10354
274.63373	10400
274.65485	10409
274.67593	10369
274.69702	10337
274.71811	10355
274.7392	10303
274.76028	10307
274.78137	10414
274.80246	10493
274.82355	10490
274.84467	10498
274.86575	10425
274.88684	10463
274.90793	10552
274.92902	10525
274.9501	10663
274.97119	10740
274.99228	10709
275.01337	10732
275.03445	10776
275.05554	10784
275.07663	10772
275.09772	10820
275.1188	10902
275.13989	10880
275.16098	10857
275.18207	10815
275.20316	10873
275.22424	10841
275.24533	10862
275.26642	10777
275.28751	10751
275.30856	10738
275.32965	10762
275.35074	10756
275.37183	10806
275.39291	10809
275.414	10912
275.43509	10977
275.45618	11030
275.47726	11003
275.49832	11018
275.51941	11047
275.5405	11032
275.56158	11001
275.58267	11002
275.60376	11004
275.62482	11050
275.6459	11061
275.66699	10963
275.68808	10914
275.70917	10963
275.73022	10961
275.75131	11002
275.7724	10936
275.79349	10964
275.81454	10892
275.83563	10948
275.85672	10945
275.87778	11052
275.89886	11135
275.91995	11160
275.94104	11145
275.9621	11177
275.98318	11120
276.00427	11019
276.02533	11078
276.04642	11087
276.0675	11103
276.08856	11169
276.10965	11227
276.13074	11179
276.15179	11171
276.17288	11191
276.19394	11221
276.21503	11325
276.23611	11465
276.25717	11494
276.27826	11521
276.29932	11394
276.3204	11337
276.34149	11366
276.36255	11460
276.38364	11552
276.40469	11725
276.42578	11770
276.44684	11700
276.46793	11748
276.48898	11714
276.51007	11696
276.53113	11695
276.55222	11656
276.57327	11699
276.59436	11626
276.61542	11629
276.63651	11610
276.65756	11550
276.67862	11528
276.69971	11493
276.72076	11599
276.74185	11704
276.76291	11798
276.784	11752
276.80505	11750
276.82611	11639
276.8472	11767
276.86826	11863
276.88934	11989
276.9104	12002
276.93146	11964
276.95255	11998
276.9736	12090
276.99466	12082
277.01575	11942
277.0368	11932
277.05786	11974
277.07895	11944
277.10001	11994
277.12106	12001
277.14212	12075
277.16321	12133
277.18427	12185
277.20532	12310
277.22638	12342
277.24747	12355
277.26852	12201
277.28958	12219
277.31064	12178
277.33173	12126
277.35278	12303
277.37384	12337
277.3949	12367
277.41595	12357
277.43704	12241
277.4581	12290
277.47916	12257
277.50021	12318
277.52127	12399
277.54233	12489
277.56339	12515
277.58447	12548
277.60553	12479
277.62659	12576
277.64764	12577
277.6687	12597
277.68976	12646
277.71082	12650
277.73187	12678
277.75293	12623
277.77399	12625
277.79504	12592
277.8161	12586
277.83716	12656
277.85822	12669
277.8793	12757
277.90036	12819
277.92142	12868
277.94247	12822
277.96353	12880
277.98456	12947
278.00562	12910
278.02667	12974
278.04773	12996
278.06879	13031
278.08984	13007
278.1109	12958
278.13196	12956
278.15302	12908
278.17407	13027
278.19513	13144
278.21619	13179
278.23724	13141
278.2583	13113
278.27933	13144
278.30038	13147
278.32144	13122
278.3425	13182
278.36356	13224
278.38461	13219
278.40567	13201
278.4267	13124
278.44775	13173
278.46881	13245
278.48987	13257
278.51093	13229
278.53195	13195
278.55301	13369
278.57407	13352
278.59512	13371
278.61618	13290
278.63721	13333
278.65826	13158
278.67932	13111
278.70035	12981
278.72141	12880
278.74246	12857
278.76352	12838
278.78455	12869
278.8056	12925
278.82666	13008
278.84769	12972
278.86874	12907
278.8898	12940
278.91083	12979
278.93188	13026
278.95294	13023
278.97397	13141
278.99503	13218
279.01605	13284
279.03711	13249
279.05817	13239
279.07919	13379
279.10025	13489
279.12128	13457
279.14233	13448
279.16339	13522
279.18442	13391
279.20547	13320
279.2265	13268
279.24756	13292
279.26859	13239
279.28964	13317
279.31067	13474
279.33173	13571
279.35275	13591
279.37381	13546
279.39484	13515
279.41589	13535
279.43692	13706
279.45798	13793
279.479	13821
279.50006	13966
279.52109	13972
279.54211	13934
279.56317	13911
279.5842	13848
279.60526	13812
279.62628	13815
279.64731	13836
279.66837	13840
279.68939	13924
279.71045	13843
279.73148	13924
279.7525	13937
279.77356	13925
279.79459	13906
279.81561	13987
279.83667	13943
279.8577	13930
279.87872	13824
279.89975	13809
279.92081	13922
279.94183	13946
279.96286	14051
279.98392	14068
280.00494	14250
280.02597	14234
