Date and Time:                Mon Jan 30 17:52:07.000 2023
Software Version:             4.31.30023.0
Temperature (C):              -40
Model:                        DU940P_BU2
Data Type:                    Counts
Acquisition Mode:             Single Scan
Trigger Mode:                 Internal
Exposure Time (secs):         0.7
Readout Mode:                 Full Vertical Binning
Horizontal binning:           1
Extended Dynamic Range:       off
Horizontally flipped:         false
Vertical Shift Speed (usecs): 14.51
Pixel Readout Rate (MHz):     3
Baseline Clamp:               ON
Clock Amplitude:              Normal
Output Amplifier:             High Capacity
Serial Number:                23634
Pre-Amplifier Gain:           1.000000
Spurious Noise Filter Mode:   No Filter
Photon counted:               false
Data Averaging Filter Mode:   No Filter
SR500i:
Serial Number:                
Wavelength (nm):              262.5
Grating Groove Density (l/mm):1199.47
Grating Blaze:                500
Output Flipper Port:          Direct
Accessory Output Port 1:      Off
Accessory Output Port 2:      Off
Accessory Output Port 3:      Off
Accessory Input Port:         On



240.76587	5274
240.7872	5020
240.80855	5035
240.8299	5046
240.85123	5016
240.87257	5060
240.89392	5109
240.91525	5101
240.9366	5075
240.95793	5063
240.97928	4996
241.00063	5018
241.02196	4994
241.0433	5052
241.06464	5034
241.08598	5050
241.10732	5037
241.12866	5069
241.14999	5098
241.17134	5118
241.19267	5077
241.21402	5084
241.23535	5112
241.25668	5130
241.27803	5113
241.29936	5104
241.32071	5118
241.34204	5130
241.36337	5156
241.38472	5146
241.40605	5168
241.42738	5182
241.44873	5222
241.47006	5203
241.49139	5214
241.51274	5225
241.53407	5222
241.5554	5284
241.57674	5267
241.59808	5293
241.61942	5278
241.64075	5216
241.66208	5240
241.68341	5218
241.70476	5215
241.72609	5284
241.74742	5309
241.76875	5298
241.79008	5285
241.81142	5328
241.83275	5345
241.8541	5318
241.87543	5374
241.89676	5320
241.91809	5378
241.93942	5338
241.96075	5380
241.98209	5388
242.00342	5430
242.02475	5427
242.04608	5417
242.06741	5430
242.08875	5390
242.11008	5431
242.13141	5420
242.15274	5437
242.17407	5436
242.1954	5416
242.21674	5365
242.23805	5351
242.25938	5361
242.28072	5376
242.30205	5372
242.32338	5369
242.34471	5389
242.36604	5372
242.38736	5358
242.40869	5391
242.43002	5370
242.45135	5385
242.47269	5383
242.494	5444
242.51534	5476
242.53667	5488
242.55798	5492
242.57932	5494
242.60065	5530
242.62198	5516
242.6433	5499
242.66463	5513
242.68596	5518
242.70728	5510
242.72861	5506
242.74992	5455
242.77126	5487
242.79259	5532
242.8139	5467
242.83524	5470
242.85655	5526
242.87788	5554
242.8992	5556
242.92053	5528
242.94185	5567
242.96318	5592
242.9845	5563
243.00583	5606
243.02715	5699
243.04848	5684
243.06979	5638
243.09113	5661
243.11244	5640
243.13377	5674
243.15509	5611
243.17641	5679
243.19774	5676
243.21906	5688
243.24037	5659
243.2617	5651
243.28302	5699
243.30434	5691
243.32567	5681
243.34698	5677
243.3683	5668
243.38962	5670
243.41095	5658
243.43227	5644
243.45358	5658
243.4749	5592
243.49623	5672
243.51755	5685
243.53886	5654
243.56018	5691
243.5815	5674
243.60283	5677
243.62415	5633
243.64546	5639
243.66678	5652
243.6881	5659
243.70941	5641
243.73073	5665
243.75204	5635
243.77336	5595
243.79468	5669
243.81599	5627
243.83731	5647
243.85863	5672
243.87994	5635
243.90126	5709
243.92258	5702
243.94389	5685
243.96521	5742
243.98653	5731
244.00784	5778
244.02916	5785
244.05048	5788
244.07179	5766
244.09311	5767
244.11443	5770
244.13573	5761
244.15704	5749
244.17836	5817
244.19968	5784
244.22099	5793
244.24231	5803
244.26361	5829
244.28493	5818
244.30624	5848
244.32756	5877
244.34886	5885
244.37018	5933
244.39149	5896
244.4128	5894
244.43411	5914
244.45543	5965
244.47673	5983
244.49805	6046
244.51936	6049
244.54066	6045
244.56198	6080
244.5833	6051
244.6046	6005
244.62592	6059
244.64722	6025
244.66853	6051
244.68983	6036
244.71115	6038
244.73247	6032
244.75377	6043
244.77509	6047
244.79639	5970
244.81769	5985
244.839	6007
244.86031	6025
244.88162	6029
244.90292	6023
244.92424	6066
244.94554	6071
244.96684	6136
244.98816	6149
245.00946	6127
245.03078	6121
245.05208	6154
245.07338	6177
245.0947	6154
245.116	6189
245.1373	6158
245.1586	6153
245.17992	6160
245.20122	6127
245.22252	6149
245.24382	6154
245.26514	6199
245.28644	6218
245.30774	6209
245.32904	6182
245.35034	6135
245.37166	6133
245.39296	6165
245.41426	6198
245.43556	6208
245.45686	6265
245.47816	6292
245.49947	6285
245.52077	6247
245.54208	6225
245.56339	6235
245.58469	6252
245.60599	6244
245.62729	6300
245.64859	6292
245.66989	6290
245.69119	6276
245.71249	6253
245.7338	6279
245.7551	6355
245.77638	6376
245.79768	6402
245.81898	6405
245.84029	6375
245.86159	6398
245.88289	6375
245.90419	6480
245.92549	6490
245.94679	6521
245.96808	6474
245.98938	6459
246.01068	6525
246.03198	6506
246.05328	6524
246.07457	6560
246.09587	6613
246.11717	6568
246.13847	6560
246.15976	6544
246.18106	6601
246.20236	6609
246.22365	6592
246.24495	6568
246.26625	6570
246.28754	6535
246.30884	6578
246.33014	6647
246.35143	6698
246.37273	6634
246.39401	6677
246.41531	6717
246.4366	6710
246.4579	6748
246.4792	6730
246.50049	6760
246.52179	6747
246.54308	6740
246.56438	6738
246.58566	6748
246.60696	6763
246.62825	6757
246.64954	6755
246.67084	6782
246.69212	6825
246.71342	6805
246.73471	6713
246.756	6731
246.7773	6721
246.79858	6720
246.81987	6755
246.84117	6786
246.86246	6784
246.88374	6776
246.90504	6794
246.92633	6826
246.94762	6861
246.9689	6901
246.9902	6882
247.01149	6889
247.03278	6841
247.05406	6835
247.07536	6923
247.09665	6930
247.11794	6965
247.13922	6984
247.16051	6975
247.18179	6956
247.20308	7012
247.22438	7089
247.24567	7102
247.26695	7112
247.28824	7068
247.30952	7110
247.33081	7119
247.3521	7123
247.37338	7146
247.39467	7174
247.41595	7197
247.43724	7199
247.45853	7234
247.47981	7233
247.5011	7231
247.52238	7203
247.54367	7229
247.56496	7255
247.58624	7282
247.60751	7246
247.6288	7273
247.65009	7259
247.67137	7260
247.69266	7331
247.71394	7288
247.73523	7282
247.7565	7245
247.77779	7192
247.79907	7228
247.82036	7208
247.84163	7228
247.86292	7301
247.8842	7281
247.90549	7321
247.92676	7305
247.94804	7349
247.96933	7341
247.9906	7359
248.01189	7298
248.03317	7293
248.05444	7257
248.07573	7278
248.097	7234
248.11829	7316
248.13957	7314
248.16084	7263
248.18213	7263
248.2034	7223
248.22469	7225
248.24596	7257
248.26724	7218
248.28851	7264
248.3098	7350
248.33107	7338
248.35236	7335
248.37363	7369
248.39491	7350
248.41618	7378
248.43745	7351
248.45874	7416
248.48001	7435
248.5013	7422
248.52257	7376
248.54384	7376
248.56512	7329
248.5864	7308
248.60767	7351
248.62894	7373
248.65022	7468
248.67149	7450
248.69276	7460
248.71405	7396
248.73532	7361
248.75659	7364
248.77786	7395
248.79913	7396
248.82042	7439
248.84169	7499
248.86296	7456
248.88423	7435
248.9055	7452
248.92677	7423
248.94804	7451
248.96931	7480
248.9906	7456
249.01187	7499
249.03314	7443
249.05441	7428
249.07568	7432
249.09695	7433
249.11823	7459
249.1395	7430
249.16077	7412
249.18204	7429
249.20331	7442
249.22458	7420
249.24585	7389
249.26711	7442
249.28838	7468
249.30965	7494
249.33092	7559
249.35219	7520
249.37346	7522
249.39473	7581
249.41599	7558
249.43726	7564
249.45853	7470
249.4798	7412
249.50107	7494
249.52232	7450
249.54359	7418
249.56487	7445
249.58614	7488
249.60739	7517
249.62866	7512
249.64993	7518
249.67119	7477
249.69246	7487
249.71373	7527
249.73499	7550
249.75626	7650
249.77753	7683
249.79878	7641
249.82005	7673
249.84131	7631
249.86258	7648
249.88385	7602
249.90511	7556
249.92638	7641
249.94763	7635
249.9689	7641
249.99016	7667
250.01143	7635
250.03268	7631
250.05394	7687
250.07521	7738
250.09647	7732
250.11774	7784
250.13899	7762
250.16026	7797
250.18152	7719
250.20277	7761
250.22404	7813
250.2453	7852
250.26656	7954
250.28783	7961
250.30908	7969
250.33034	8011
250.35159	8022
250.37286	7987
250.39412	7944
250.41537	7975
250.43663	7976
250.4579	7994
250.47916	7965
250.50041	7923
250.52167	7992
250.54292	7986
250.56418	7945
250.58545	7922
250.6067	7938
250.62796	7924
250.64922	7991
250.67047	7959
250.69173	7974
250.71298	8015
250.73424	8019
250.75549	8135
250.77675	8157
250.798	8141
250.81926	8154
250.84052	8151
250.86177	8131
250.88303	8149
250.90428	8155
250.92554	8130
250.94679	8118
250.96805	8122
250.9893	8092
251.01056	8118
251.0318	8111
251.05305	8139
251.07431	8129
251.09557	8149
251.11682	8165
251.13808	8158
251.15932	8145
251.18057	8062
251.20183	8114
251.22308	8093
251.24432	8138
251.26558	8217
251.28683	8244
251.30807	8194
251.32933	8129
251.35059	8129
251.37183	8209
251.39308	8182
251.41434	8290
251.43558	8277
251.45683	8317
251.47809	8220
251.49933	8239
251.52058	8278
251.54182	8325
251.56308	8363
251.58432	8396
251.60558	8363
251.62682	8374
251.64807	8386
251.66931	8382
251.69057	8428
251.71181	8457
251.73306	8492
251.7543	8459
251.77556	8524
251.7968	8592
251.81804	8630
251.83929	8581
251.86053	8601
251.88177	8614
251.90303	8576
251.92427	8652
251.94551	8620
251.96677	8716
251.98801	8729
252.00925	8679
252.03049	8630
252.05174	8654
252.07298	8643
252.09422	8695
252.11546	8729
252.13672	8787
252.15796	8725
252.1792	8759
252.20044	8795
252.22168	8785
252.24292	8794
252.26416	8811
252.28542	8835
252.30666	8836
252.3279	8866
252.34914	8831
252.37038	8861
252.39162	8908
252.41286	8908
252.4341	8861
252.45534	8889
252.47658	8923
252.49782	8984
252.51906	8956
252.5403	8971
252.56154	8915
252.58278	8939
252.60402	8852
252.62524	8813
252.64648	8849
252.66772	8858
252.68896	8861
252.71021	8862
252.73145	8950
252.75269	8931
252.77391	8908
252.79515	8880
252.81639	8868
252.83763	8861
252.85886	8940
252.8801	9001
252.90134	9046
252.92258	9028
252.9438	8979
252.96504	9020
252.98628	9103
253.00751	9107
253.02875	9111
253.04999	9153
253.07121	9231
253.09245	9140
253.11368	9083
253.13492	9038
253.15616	9031
253.17738	9040
253.19862	9101
253.21985	9193
253.24109	9238
253.26231	9305
253.28355	9246
253.30478	9239
253.32602	9245
253.34724	9297
253.36847	9302
253.38971	9346
253.41093	9372
253.43217	9364
253.4534	9334
253.47462	9274
253.49586	9300
253.51709	9321
253.53831	9284
253.55956	9348
253.58078	9379
253.60201	9425
253.62325	9303
253.64447	9336
253.6657	9354
253.68692	9399
253.70816	9372
253.72939	9459
253.75061	9493
253.77184	9463
253.79306	9416
253.8143	9430
253.83553	9454
253.85675	9482
253.87798	9510
253.8992	9544
253.92043	9587
253.94165	9588
253.96288	9551
253.9841	9504
254.00533	9480
254.02655	9439
254.04778	9452
254.069	9512
254.09023	9590
254.11145	9612
254.13268	9645
254.1539	9683
254.17513	9666
254.19635	9695
254.21758	9698
254.2388	9726
254.26003	9764
254.28125	9769
254.30247	9754
254.32368	9775
254.34491	9771
254.36613	9781
254.38736	9756
254.40858	9839
254.42979	9916
254.45102	10046
254.47224	9987
254.49347	9981
254.51468	9902
254.5359	10057
254.55713	10133
254.57834	10146
254.59956	10185
254.62079	10215
254.642	10312
254.66322	10250
254.68445	10210
254.70566	10290
254.72688	10250
254.74809	10233
254.76932	10293
254.79054	10274
254.81175	10213
254.83298	10261
254.85419	10231
254.87541	10231
254.89662	10159
254.91785	10100
254.93906	10202
254.96027	10107
254.98149	10140
255.0027	10157
255.02393	10192
255.04514	10236
255.06635	10312
255.08757	10349
255.10878	10355
255.12999	10400
255.15121	10388
255.17242	10386
255.19363	10374
255.21486	10405
255.23607	10394
255.25728	10452
255.27849	10380
255.29971	10361
255.32092	10336
255.34213	10418
255.36334	10375
255.38455	10389
255.40578	10425
255.42699	10394
255.4482	10366
255.46941	10397
255.49062	10408
255.51183	10447
255.53304	10564
255.55424	10580
255.57545	10602
255.59666	10609
255.61787	10577
255.63908	10602
255.66029	10571
255.6815	10540
255.70271	10624
255.72392	10584
255.74513	10620
255.76634	10585
255.78755	10649
255.80876	10649
255.82997	10670
255.85118	10763
255.87239	10858
255.8936	10854
255.91479	10862
255.936	10864
255.95721	10819
255.97842	10883
255.99963	10938
256.02084	10990
256.04205	11104
256.06323	11131
256.08444	11118
256.10565	11145
256.12686	11164
256.14807	11113
256.16928	11178
256.19046	11136
256.21167	11189
256.23288	11219
256.25409	11204
256.2753	11220
256.29651	11216
256.31769	11190
256.3389	11174
256.36011	11089
256.38132	11140
256.4025	11206
256.42371	11327
256.44492	11293
256.46613	11276
256.4873	11322
256.50851	11449
256.52972	11495
256.55093	11477
256.57211	11483
256.59332	11549
256.61453	11601
256.63571	11522
256.65692	11519
256.67813	11616
256.69931	11585
256.72052	11560
256.74173	11431
256.76291	11459
256.78412	11554
256.80533	11535
256.82651	11571
256.84772	11526
256.8689	11628
256.89011	11613
256.91132	11527
256.9325	11491
256.9537	11492
256.97488	11470
256.99609	11587
257.0173	11607
257.03848	11670
257.05969	11695
257.08087	11583
257.10208	11539
257.12326	11613
257.14447	11598
257.16565	11709
257.18686	11787
257.20804	11861
257.22925	11813
257.25043	11823
257.27164	11780
257.29282	11954
257.31403	11967
257.33521	11984
257.35641	11957
257.37759	11941
257.3988	11893
257.41998	11901
257.44116	11946
257.46237	12038
257.48355	12191
257.50476	12119
257.52594	12128
257.54712	12252
257.56833	12341
257.58951	12381
257.61072	12346
257.6319	12323
257.65308	12295
257.67429	12306
257.69547	12326
257.71664	12376
257.73785	12440
257.75903	12444
257.78021	12409
257.80142	12350
257.8226	12366
257.84378	12322
257.86496	12455
257.88617	12506
257.90735	12615
257.92853	12522
257.94974	12492
257.97092	12627
257.9921	12635
258.01328	12694
258.03448	12634
258.05566	12624
258.07684	12705
258.09802	12616
258.1192	12629
258.14041	12686
258.16159	12772
258.18277	12724
258.20395	12651
258.22513	12801
258.24631	12942
258.26752	12883
258.2887	12920
258.30988	12900
258.33105	12834
258.35223	12794
258.37341	12660
258.39459	12672
258.4158	12566
258.43698	12557
258.45816	12633
258.47934	12722
258.50052	12776
258.5217	12720
258.54288	12649
258.56406	12608
258.58524	12575
258.60641	12680
258.62759	12762
258.64877	12884
258.66995	12948
258.69113	12814
258.71231	12861
258.73349	12932
258.75467	12978
258.77585	13024
258.79703	13108
258.81821	13148
258.83939	13192
258.86057	13160
258.88174	13000
258.90292	12992
258.9241	13058
258.94528	13050
258.96646	13177
258.98764	13318
259.00882	13420
259.03	13472
259.05118	13366
259.07233	13448
259.09351	13557
259.11469	13635
259.13586	13718
259.15704	13818
259.17822	13915
259.1994	13909
259.22058	13788
259.24173	13833
259.26291	13844
259.28409	13847
259.30527	13897
259.32645	13887
259.3476	13909
259.36877	13923
259.38995	13948
259.41113	13902
259.43231	13981
259.45346	14021
259.47464	14029
259.49582	14109
259.517	14069
259.53815	14032
259.55933	14020
259.58051	14002
259.60168	14072
259.62283	14105
259.64401	14278
259.66519	14358
259.68634	14414
259.70752	14429
259.7287	14295
259.74985	14187
259.77103	14200
259.79221	14226
259.81335	14266
259.83453	14400
259.85571	14502
259.87686	14442
259.89804	14461
259.91919	14420
259.94037	14401
259.96155	14465
259.9827	14489
260.00388	14529
260.02502	14541
260.0462	14597
260.06738	14571
260.08853	14539
260.10971	14444
260.13086	14493
260.15204	14543
260.17319	14727
260.19437	14839
260.21552	14893
260.23669	14849
260.25784	14823
260.27902	14825
260.30017	14903
260.32135	14981
260.3425	15069
260.36368	15176
260.38483	15182
260.40601	15177
260.42715	15330
260.4483	15319
260.46948	15342
260.49063	15401
260.51181	15447
260.53296	15433
260.55414	15451
260.57529	15372
260.59644	15452
260.61761	15380
260.63876	15395
260.65991	15337
260.68109	15306
260.70224	15252
260.72339	15310
260.74457	15320
260.76572	15397
260.78687	15371
260.80804	15432
260.82919	15549
260.85034	15616
260.87152	15611
260.89267	15603
260.91382	15673
260.935	15728
260.95615	15604
260.97729	15612
260.99844	15615
261.01962	15624
261.04077	15600
261.06192	15423
261.08307	15447
261.10422	15577
261.1254	15578
261.14655	15503
261.16769	15495
261.18884	15474
261.20999	15423
261.23117	15406
261.25232	15483
261.27347	15599
261.29462	15656
261.31577	15652
261.33691	15736
261.35806	15674
261.37924	15650
261.40039	15621
261.42154	15702
261.44269	15679
261.46384	15776
261.48499	15880
261.50613	15852
261.52728	15900
261.54843	15871
261.56958	15820
261.59073	15919
261.61188	16116
261.63306	16209
261.65421	16247
261.67535	16176
261.6965	16059
261.71765	16021
261.7388	15963
261.75995	16067
261.7811	16211
261.80225	16359
261.82339	16361
261.84451	16351
261.86566	16396
261.88681	16449
261.90796	16401
261.92911	16346
261.95026	16317
261.97141	16352
261.99255	16232
262.0137	16236
262.03485	16248
262.056	16245
262.07715	16207
262.09827	16112
262.11942	16250
262.14056	16365
262.16171	16511
262.18286	16500
262.20401	16453
262.22516	16409
262.24628	16467
262.26743	16655
262.28857	16799
262.30972	16745
262.33087	16740
262.35199	16761
262.37314	16949
262.39429	16917
262.41544	16723
262.43658	16754
262.4577	16826
262.47885	16759
262.5	16800
262.52115	16800
262.54227	16927
262.56342	17021
262.58456	17125
262.60568	17311
262.62683	17407
262.64798	17278
262.6691	17177
262.69025	17107
262.7114	17110
262.73251	17143
262.75366	17293
262.77481	17435
262.79593	17374
262.81708	17396
262.83823	17313
262.85934	17190
262.88049	17312
262.90164	17303
262.92276	17364
262.94391	17581
262.96503	17689
262.98618	17684
263.00729	17571
263.02844	17632
263.04959	17761
263.07071	17804
263.09186	17904
263.11298	17862
263.13412	17883
263.15524	17879
263.17639	17771
263.19751	17734
263.21866	17744
263.23978	17810
263.26093	17798
263.28204	18000
263.30319	18052
263.32431	18129
263.34543	18131
263.36658	18174
263.3877	18242
263.40884	18296
263.42996	18353
263.45111	18344
263.47223	18388
263.49335	18370
263.5145	18303
263.53561	18353
263.55676	18316
263.57788	18420
263.599	18520
263.62015	18482
263.64127	18497
263.66238	18604
263.68353	18585
263.70465	18529
263.72577	18554
263.74692	18608
263.76804	18704
263.78915	18684
263.8103	18701
263.83142	18531
263.85254	18553
263.87366	18582
263.89481	18704
263.91592	18727
263.93704	18675
263.95816	18776
263.97931	18851
264.00043	18857
264.02155	18897
264.04266	18727
264.06378	18565
264.08493	18611
264.10605	18377
264.12717	18185
264.14828	18192
264.1694	18116
264.19055	18086
264.21167	18253
264.23279	18283
264.25391	18314
264.27502	18244
264.29614	18322
264.31726	18260
264.33838	18320
264.3595	18422
264.38065	18476
264.40176	18699
264.42288	18786
264.444	18677
264.46512	18782
264.48624	18979
264.50735	18998
264.52847	19059
264.54959	19070
264.57071	19068
264.59183	19037
264.61295	18889
264.63406	18827
264.65518	18877
264.6763	18822
264.69742	18909
264.71854	18981
264.73965	19220
264.76077	19357
264.78189	19233
264.80301	19122
264.82413	19192
264.84525	19373
264.86636	19556
264.88748	19674
264.90857	19805
264.92969	19812
264.95081	19820
264.97192	19817
264.99304	19799
265.01416	19664
265.03528	19686
265.0564	19769
265.07748	19824
265.0986	19770
265.11972	19798
265.14084	19789
265.16196	19862
265.18307	19837
