Date and Time:                Mon Jan 30 17:52:01.000 2023
Software Version:             4.31.30023.0
Temperature (C):              -40
Model:                        DU940P_BU2
Data Type:                    Counts
Acquisition Mode:             Single Scan
Trigger Mode:                 Internal
Exposure Time (secs):         0.7
Readout Mode:                 Full Vertical Binning
Horizontal binning:           1
Extended Dynamic Range:       off
Horizontally flipped:         false
Vertical Shift Speed (usecs): 14.51
Pixel Readout Rate (MHz):     3
Baseline Clamp:               ON
Clock Amplitude:              Normal
Output Amplifier:             High Capacity
Serial Number:                23634
Pre-Amplifier Gain:           1.000000
Spurious Noise Filter Mode:   No Filter
Photon counted:               false
Data Averaging Filter Mode:   No Filter
SR500i:
Serial Number:                
Wavelength (nm):              262.5
Grating Groove Density (l/mm):1199.47
Grating Blaze:                500
Output Flipper Port:          Direct
Accessory Output Port 1:      Off
Accessory Output Port 2:      Off
Accessory Output Port 3:      Off
Accessory Input Port:         On



240.76587	5262
240.7872	5029
240.80855	5011
240.8299	5017
240.85123	5030
240.87257	5052
240.89392	5093
240.91525	5077
240.9366	5073
240.95793	5059
240.97928	5048
241.00063	5005
241.02196	4986
241.0433	5004
241.06464	5042
241.08598	5081
241.10732	5023
241.12866	5079
241.14999	5089
241.17134	5084
241.19267	5103
241.21402	5083
241.23535	5102
241.25668	5101
241.27803	5126
241.29936	5110
241.32071	5143
241.34204	5169
241.36337	5142
241.38472	5139
241.40605	5183
241.42738	5197
241.44873	5206
241.47006	5199
241.49139	5201
241.51274	5237
241.53407	5213
241.5554	5230
241.57674	5263
241.59808	5240
241.61942	5254
241.64075	5253
241.66208	5209
241.68341	5243
241.70476	5246
241.72609	5266
241.74742	5300
241.76875	5289
241.79008	5285
241.81142	5280
241.83275	5317
241.8541	5299
241.87543	5331
241.89676	5339
241.91809	5344
241.93942	5369
241.96075	5374
241.98209	5378
242.00342	5381
242.02475	5453
242.04608	5386
242.06741	5450
242.08875	5449
242.11008	5430
242.13141	5438
242.15274	5409
242.17407	5406
242.1954	5408
242.21674	5405
242.23805	5370
242.25938	5354
242.28072	5364
242.30205	5374
242.32338	5356
242.34471	5389
242.36604	5383
242.38736	5409
242.40869	5354
242.43002	5352
242.45135	5409
242.47269	5414
242.494	5417
242.51534	5458
242.53667	5464
242.55798	5502
242.57932	5524
242.60065	5539
242.62198	5481
242.6433	5445
242.66463	5487
242.68596	5480
242.70728	5515
242.72861	5517
242.74992	5499
242.77126	5475
242.79259	5481
242.8139	5536
242.83524	5492
242.85655	5550
242.87788	5573
242.8992	5588
242.92053	5524
242.94185	5547
242.96318	5570
242.9845	5533
243.00583	5637
243.02715	5645
243.04848	5684
243.06979	5671
243.09113	5657
243.11244	5655
243.13377	5627
243.15509	5627
243.17641	5672
243.19774	5706
243.21906	5682
243.24037	5672
243.2617	5640
243.28302	5675
243.30434	5685
243.32567	5658
243.34698	5649
243.3683	5689
243.38962	5699
243.41095	5645
243.43227	5648
243.45358	5624
243.4749	5608
243.49623	5637
243.51755	5681
243.53886	5677
243.56018	5703
243.5815	5716
243.60283	5673
243.62415	5679
243.64546	5632
243.66678	5644
243.6881	5680
243.70941	5635
243.73073	5614
243.75204	5613
243.77336	5599
243.79468	5644
243.81599	5663
243.83731	5666
243.85863	5650
243.87994	5694
243.90126	5675
243.92258	5684
243.94389	5734
243.96521	5694
243.98653	5744
244.00784	5750
244.02916	5780
244.05048	5784
244.07179	5826
244.09311	5760
244.11443	5775
244.13573	5774
244.15704	5796
244.17836	5773
244.19968	5767
244.22099	5787
244.24231	5784
244.26361	5809
244.28493	5833
244.30624	5849
244.32756	5877
244.34886	5902
244.37018	5897
244.39149	5892
244.4128	5873
244.43411	5932
244.45543	5983
244.47673	6030
244.49805	6008
244.51936	6040
244.54066	6047
244.56198	6093
244.5833	6038
244.6046	6033
244.62592	6057
244.64722	6058
244.66853	6048
244.68983	6047
244.71115	6024
244.73247	6060
244.75377	6059
244.77509	6005
244.79639	5951
244.81769	6018
244.839	5971
244.86031	5982
244.88162	6061
244.90292	6032
244.92424	6035
244.94554	6083
244.96684	6122
244.98816	6139
245.00946	6111
245.03078	6153
245.05208	6186
245.07338	6188
245.0947	6135
245.116	6127
245.1373	6171
245.1586	6176
245.17992	6160
245.20122	6103
245.22252	6128
245.24382	6165
245.26514	6154
245.28644	6201
245.30774	6205
245.32904	6233
245.35034	6179
245.37166	6164
245.39296	6188
245.41426	6204
245.43556	6219
245.45686	6239
245.47816	6273
245.49947	6318
245.52077	6271
245.54208	6247
245.56339	6227
245.58469	6255
245.60599	6255
245.62729	6295
245.64859	6271
245.66989	6283
245.69119	6226
245.71249	6240
245.7338	6318
245.7551	6338
245.77638	6359
245.79768	6426
245.81898	6418
245.84029	6371
245.86159	6424
245.88289	6390
245.90419	6455
245.92549	6462
245.94679	6491
245.96808	6490
245.98938	6501
246.01068	6464
246.03198	6494
246.05328	6567
246.07457	6573
246.09587	6583
246.11717	6567
246.13847	6549
246.15976	6575
246.18106	6608
246.20236	6606
246.22365	6583
246.24495	6578
246.26625	6537
246.28754	6570
246.30884	6592
246.33014	6620
246.35143	6627
246.37273	6655
246.39401	6665
246.41531	6722
246.4366	6711
246.4579	6725
246.4792	6760
246.50049	6776
246.52179	6780
246.54308	6777
246.56438	6739
246.58566	6735
246.60696	6730
246.62825	6758
246.64954	6733
246.67084	6808
246.69212	6813
246.71342	6789
246.73471	6741
246.756	6699
246.7773	6696
246.79858	6747
246.81987	6714
246.84117	6738
246.86246	6790
246.88374	6822
246.90504	6818
246.92633	6831
246.94762	6876
246.9689	6907
246.9902	6870
247.01149	6906
247.03278	6861
247.05406	6865
247.07536	6934
247.09665	6953
247.11794	6962
247.13922	6949
247.16051	6998
247.18179	6991
247.20308	7023
247.22438	7073
247.24567	7101
247.26695	7114
247.28824	7085
247.30952	7106
247.33081	7141
247.3521	7149
247.37338	7176
247.39467	7178
247.41595	7188
247.43724	7196
247.45853	7233
247.47981	7269
247.5011	7241
247.52238	7253
247.54367	7232
247.56496	7242
247.58624	7282
247.60751	7260
247.6288	7240
247.65009	7251
247.67137	7262
247.69266	7304
247.71394	7284
247.73523	7243
247.7565	7203
247.77779	7177
247.79907	7219
247.82036	7247
247.84163	7271
247.86292	7296
247.8842	7285
247.90549	7291
247.92676	7330
247.94804	7341
247.96933	7370
247.9906	7331
248.01189	7315
248.03317	7290
248.05444	7283
248.07573	7288
248.097	7283
248.11829	7346
248.13957	7341
248.16084	7290
248.18213	7263
248.2034	7252
248.22469	7221
248.24596	7266
248.26724	7260
248.28851	7282
248.3098	7330
248.33107	7387
248.35236	7382
248.37363	7363
248.39491	7323
248.41618	7349
248.43745	7360
248.45874	7383
248.48001	7390
248.5013	7424
248.52257	7335
248.54384	7297
248.56512	7311
248.5864	7305
248.60767	7345
248.62894	7396
248.65022	7449
248.67149	7476
248.69276	7428
248.71405	7354
248.73532	7348
248.75659	7382
248.77786	7388
248.79913	7423
248.82042	7449
248.84169	7505
248.86296	7492
248.88423	7438
248.9055	7434
248.92677	7482
248.94804	7472
248.96931	7507
248.9906	7537
249.01187	7467
249.03314	7462
249.05441	7457
249.07568	7452
249.09695	7444
249.11823	7458
249.1395	7439
249.16077	7447
249.18204	7426
249.20331	7432
249.22458	7426
249.24585	7488
249.26711	7459
249.28838	7451
249.30965	7490
249.33092	7568
249.35219	7529
249.37346	7557
249.39473	7548
249.41599	7542
249.43726	7492
249.45853	7454
249.4798	7481
249.50107	7488
249.52232	7474
249.54359	7433
249.56487	7430
249.58614	7497
249.60739	7462
249.62866	7520
249.64993	7530
249.67119	7477
249.69246	7476
249.71373	7479
249.73499	7568
249.75626	7634
249.77753	7685
249.79878	7672
249.82005	7654
249.84131	7675
249.86258	7662
249.88385	7608
249.90511	7569
249.92638	7615
249.94763	7643
249.9689	7636
249.99016	7648
250.01143	7611
250.03268	7620
250.05394	7691
250.07521	7695
250.09647	7765
250.11774	7778
250.13899	7807
250.16026	7776
250.18152	7752
250.20277	7755
250.22404	7825
250.2453	7884
250.26656	7966
250.28783	7988
250.30908	7963
250.33034	7991
250.35159	7974
250.37286	7961
250.39412	8010
250.41537	7969
250.43663	8012
250.4579	8007
250.47916	7951
250.50041	7922
250.52167	7952
250.54292	7945
250.56418	7954
250.58545	7966
250.6067	7946
250.62796	7931
250.64922	7981
250.67047	8028
250.69173	7970
250.71298	7936
250.73424	7997
250.75549	8144
250.77675	8154
250.798	8164
250.81926	8147
250.84052	8137
250.86177	8170
250.88303	8151
250.90428	8088
250.92554	8153
250.94679	8149
250.96805	8099
250.9893	8087
251.01056	8136
251.0318	8149
251.05305	8131
251.07431	8133
251.09557	8146
251.11682	8168
251.13808	8175
251.15932	8127
251.18057	8044
251.20183	8130
251.22308	8069
251.24432	8185
251.26558	8242
251.28683	8228
251.30807	8209
251.32933	8149
251.35059	8197
251.37183	8204
251.39308	8221
251.41434	8283
251.43558	8292
251.45683	8286
251.47809	8246
251.49933	8233
251.52058	8292
251.54182	8363
251.56308	8367
251.58432	8383
251.60558	8369
251.62682	8375
251.64807	8357
251.66931	8430
251.69057	8458
251.71181	8449
251.73306	8533
251.7543	8488
251.77556	8542
251.7968	8534
251.81804	8610
251.83929	8613
251.86053	8610
251.88177	8612
251.90303	8645
251.92427	8628
251.94551	8607
251.96677	8667
251.98801	8670
252.00925	8652
252.03049	8607
252.05174	8598
252.07298	8636
252.09422	8680
252.11546	8765
252.13672	8762
252.15796	8724
252.1792	8770
252.20044	8778
252.22168	8764
252.24292	8860
252.26416	8825
252.28542	8846
252.30666	8825
252.3279	8863
252.34914	8825
252.37038	8831
252.39162	8940
252.41286	8940
252.4341	8901
252.45534	8906
252.47658	8963
252.49782	8932
252.51906	8974
252.5403	8955
252.56154	8979
252.58278	8918
252.60402	8928
252.62524	8799
252.64648	8897
252.66772	8836
252.68896	8874
252.71021	8864
252.73145	8937
252.75269	8935
252.77391	8918
252.79515	8874
252.81639	8868
252.83763	8898
252.85886	8925
252.8801	9051
252.90134	9051
252.92258	9054
252.9438	9026
252.96504	9026
252.98628	9064
253.00751	9099
253.02875	9121
253.04999	9141
253.07121	9133
253.09245	9143
253.11368	9102
253.13492	9043
253.15616	9051
253.17738	9081
253.19862	9097
253.21985	9178
253.24109	9262
253.26231	9296
253.28355	9215
253.30478	9215
253.32602	9257
253.34724	9257
253.36847	9265
253.38971	9366
253.41093	9411
253.43217	9381
253.4534	9343
253.47462	9305
253.49586	9273
253.51709	9268
253.53831	9326
253.55956	9333
253.58078	9365
253.60201	9419
253.62325	9341
253.64447	9329
253.6657	9366
253.68692	9374
253.70816	9351
253.72939	9411
253.75061	9455
253.77184	9475
253.79306	9419
253.8143	9427
253.83553	9488
253.85675	9519
253.87798	9540
253.8992	9583
253.92043	9620
253.94165	9614
253.96288	9542
253.9841	9499
254.00533	9473
254.02655	9456
254.04778	9468
254.069	9499
254.09023	9606
254.11145	9613
254.13268	9608
254.1539	9677
254.17513	9696
254.19635	9668
254.21758	9717
254.2388	9755
254.26003	9775
254.28125	9751
254.30247	9779
254.32368	9828
254.34491	9764
254.36613	9757
254.38736	9776
254.40858	9813
254.42979	9986
254.45102	9990
254.47224	9980
254.49347	9921
254.51468	9941
254.5359	10016
254.55713	10134
254.57834	10152
254.59956	10178
254.62079	10236
254.642	10251
254.66322	10318
254.68445	10283
254.70566	10248
254.72688	10208
254.74809	10235
254.76932	10270
254.79054	10262
254.81175	10227
254.83298	10292
254.85419	10218
254.87541	10256
254.89662	10172
254.91785	10184
254.93906	10137
254.96027	10105
254.98149	10211
255.0027	10235
255.02393	10213
255.04514	10230
255.06635	10322
255.08757	10299
255.10878	10399
255.12999	10348
255.15121	10404
255.17242	10427
255.19363	10407
255.21486	10442
255.23607	10431
255.25728	10387
255.27849	10424
255.29971	10379
255.32092	10307
255.34213	10417
255.36334	10391
255.38455	10380
255.40578	10377
255.42699	10426
255.4482	10408
255.46941	10388
255.49062	10415
255.51183	10476
255.53304	10548
255.55424	10629
255.57545	10559
255.59666	10605
255.61787	10636
255.63908	10562
255.66029	10589
255.6815	10593
255.70271	10551
255.72392	10632
255.74513	10613
255.76634	10614
255.78755	10578
255.80876	10619
255.82997	10648
255.85118	10805
255.87239	10799
255.8936	10874
255.91479	10903
255.936	10856
255.95721	10820
255.97842	10890
255.99963	10921
256.02084	11042
256.04205	11112
256.06323	11122
256.08444	11071
256.10565	11138
256.12686	11207
256.14807	11214
256.16928	11160
256.19046	11177
256.21167	11262
256.23288	11221
256.25409	11213
256.2753	11184
256.29651	11220
256.31769	11162
256.3389	11094
256.36011	11124
256.38132	11136
256.4025	11232
256.42371	11322
256.44492	11322
256.46613	11316
256.4873	11289
256.50851	11403
256.52972	11516
256.55093	11463
256.57211	11494
256.59332	11494
256.61453	11509
256.63571	11550
256.65692	11525
256.67813	11508
256.69931	11642
256.72052	11545
256.74173	11471
256.76291	11430
256.78412	11535
256.80533	11525
256.82651	11540
256.84772	11512
256.8689	11619
256.89011	11542
256.91132	11545
256.9325	11476
256.9537	11479
256.97488	11588
256.99609	11553
257.0173	11649
257.03848	11712
257.05969	11649
257.08087	11565
257.10208	11557
257.12326	11580
257.14447	11614
257.16565	11686
257.18686	11750
257.20804	11852
257.22925	11859
257.25043	11766
257.27164	11841
257.29282	11941
257.31403	11968
257.33521	11961
257.35641	12044
257.37759	11965
257.3988	11908
257.41998	11895
257.44116	11965
257.46237	12024
257.48355	12202
257.50476	12179
257.52594	12181
257.54712	12171
257.56833	12301
257.58951	12344
257.61072	12326
257.6319	12281
257.65308	12326
257.67429	12328
257.69547	12323
257.71664	12358
257.73785	12416
257.75903	12432
257.78021	12418
257.80142	12393
257.8226	12341
257.84378	12365
257.86496	12440
257.88617	12532
257.90735	12527
257.92853	12548
257.94974	12586
257.97092	12672
257.9921	12603
258.01328	12619
258.03448	12692
258.05566	12709
258.07684	12694
258.09802	12663
258.1192	12642
258.14041	12680
258.16159	12686
258.18277	12631
258.20395	12742
258.22513	12861
258.24631	12863
258.26752	12857
258.2887	12897
258.30988	12912
258.33105	12815
258.35223	12795
258.37341	12692
258.39459	12602
258.4158	12608
258.43698	12572
258.45816	12622
258.47934	12719
258.50052	12745
258.5217	12764
258.54288	12642
258.56406	12638
258.58524	12601
258.60641	12651
258.62759	12823
258.64877	12900
258.66995	12941
258.69113	12821
258.71231	12850
258.73349	12935
258.75467	12989
258.77585	13002
258.79703	13067
258.81821	13130
258.83939	13174
258.86057	13034
258.88174	13005
258.90292	13038
258.9241	12955
258.94528	13042
258.96646	13137
258.98764	13333
259.00882	13392
259.03	13396
259.05118	13391
259.07233	13476
259.09351	13616
259.11469	13704
259.13586	13787
259.15704	13798
259.17822	13946
259.1994	13928
259.22058	13822
259.24173	13909
259.26291	13865
259.28409	13821
259.30527	13932
259.32645	13893
259.3476	13958
259.36877	13942
259.38995	13876
259.41113	13916
259.43231	13956
259.45346	14067
259.47464	14039
259.49582	14129
259.517	14129
259.53815	14051
259.55933	14046
259.58051	14050
259.60168	14135
259.62283	14140
259.64401	14262
259.66519	14377
259.68634	14407
259.70752	14382
259.7287	14317
259.74985	14209
259.77103	14138
259.79221	14182
259.81335	14266
259.83453	14363
259.85571	14494
259.87686	14378
259.89804	14433
259.91919	14368
259.94037	14428
259.96155	14441
259.9827	14509
260.00388	14490
260.02502	14564
260.0462	14600
260.06738	14619
260.08853	14504
260.10971	14523
260.13086	14526
260.15204	14543
260.17319	14712
260.19437	14802
260.21552	14908
260.23669	14794
260.25784	14845
260.27902	14815
260.30017	14914
260.32135	14998
260.3425	15085
260.36368	15260
260.38483	15251
260.40601	15223
260.42715	15261
260.4483	15371
260.46948	15384
260.49063	15399
260.51181	15418
260.53296	15463
260.55414	15482
260.57529	15388
260.59644	15442
260.61761	15462
260.63876	15422
260.65991	15399
260.68109	15288
260.70224	15313
260.72339	15323
260.74457	15349
260.76572	15404
260.78687	15375
260.80804	15435
260.82919	15580
260.85034	15585
260.87152	15578
260.89267	15608
260.91382	15705
260.935	15652
260.95615	15639
260.97729	15620
260.99844	15561
261.01962	15638
261.04077	15556
261.06192	15476
261.08307	15439
261.10422	15499
261.1254	15546
261.14655	15459
261.16769	15495
261.18884	15455
261.20999	15434
261.23117	15418
261.25232	15482
261.27347	15541
261.29462	15708
261.31577	15657
261.33691	15750
261.35806	15664
261.37924	15699
261.40039	15645
261.42154	15656
261.44269	15700
261.46384	15787
261.48499	15791
261.50613	15850
261.52728	15872
261.54843	15836
261.56958	15810
261.59073	15936
261.61188	16084
261.63306	16170
261.65421	16221
261.67535	16214
261.6965	16091
261.71765	15919
261.7388	16067
261.75995	16063
261.7811	16198
261.80225	16385
261.82339	16330
261.84451	16376
261.86566	16471
261.88681	16489
261.90796	16435
261.92911	16347
261.95026	16388
261.97141	16364
261.99255	16292
262.0137	16270
262.03485	16251
262.056	16282
262.07715	16183
262.09827	16117
262.11942	16300
262.14056	16400
262.16171	16458
262.18286	16505
262.20401	16459
262.22516	16396
262.24628	16452
262.26743	16660
262.28857	16805
262.30972	16789
262.33087	16732
262.35199	16848
262.37314	16954
262.39429	16918
262.41544	16738
262.43658	16796
262.4577	16824
262.47885	16816
262.5	16787
262.52115	16893
262.54227	16947
262.56342	17053
262.58456	17108
262.60568	17244
262.62683	17373
262.64798	17308
262.6691	17179
262.69025	17144
262.7114	17181
262.73251	17173
262.75366	17321
262.77481	17419
262.79593	17467
262.81708	17408
262.83823	17230
262.85934	17252
262.88049	17259
262.90164	17310
262.92276	17429
262.94391	17546
262.96503	17675
262.98618	17732
263.00729	17593
263.02844	17702
263.04959	17813
263.07071	17833
263.09186	17874
263.11298	17840
263.13412	17835
263.15524	17826
263.17639	17765
263.19751	17788
263.21866	17730
263.23978	17812
263.26093	17833
263.28204	17913
263.30319	18010
263.32431	18118
263.34543	18130
263.36658	18178
263.3877	18237
263.40884	18370
263.42996	18316
263.45111	18384
263.47223	18417
263.49335	18353
263.5145	18297
263.53561	18282
263.55676	18375
263.57788	18436
263.599	18520
263.62015	18541
263.64127	18472
263.66238	18588
263.68353	18478
263.70465	18437
263.72577	18468
263.74692	18529
263.76804	18713
263.78915	18667
263.8103	18614
263.83142	18519
263.85254	18527
263.87366	18578
263.89481	18754
263.91592	18690
263.93704	18718
263.95816	18828
263.97931	18851
264.00043	18807
264.02155	18812
264.04266	18742
264.06378	18576
264.08493	18555
264.10605	18288
264.12717	18236
264.14828	18227
264.1694	18170
264.19055	18104
264.21167	18252
264.23279	18261
264.25391	18329
264.27502	18234
264.29614	18352
264.31726	18306
264.33838	18295
264.3595	18397
264.38065	18619
264.40176	18704
264.42288	18802
264.444	18714
264.46512	18777
264.48624	18886
264.50735	19034
264.52847	19006
264.54959	19074
264.57071	19104
264.59183	19071
264.61295	18894
264.63406	18835
264.65518	18789
264.6763	18815
264.69742	18812
264.71854	19077
264.73965	19184
264.76077	19358
264.78189	19218
264.80301	19160
264.82413	19176
264.84525	19374
264.86636	19544
264.88748	19724
264.90857	19802
264.92969	19870
264.95081	19810
264.97192	19750
264.99304	19755
265.01416	19706
265.03528	19666
265.0564	19756
265.07748	19851
265.0986	19890
265.11972	19797
265.14084	19865
265.16196	19852
265.18307	19842
