Date and Time:                Mon Apr 25 12:56:54.000 2022
Software Version:             4.31.30023.0
Temperature (C):              -40
Model:                        DU940P_BU2
Data Type:                    Counts
Acquisition Mode:             Single Scan
Trigger Mode:                 Internal
Exposure Time (secs):         0.12
Readout Mode:                 Full Vertical Binning
Horizontal binning:           1
Extended Dynamic Range:       off
Horizontally flipped:         false
Vertical Shift Speed (usecs): 14.51
Pixel Readout Rate (MHz):     3
Baseline Clamp:               ON
Clock Amplitude:              Normal
Output Amplifier:             High Capacity
Serial Number:                23634
Pre-Amplifier Gain:           1.000000
Spurious Noise Filter Mode:   No Filter
Photon counted:               false
Data Averaging Filter Mode:   No Filter
SR500i:
Serial Number:                
Wavelength (nm):              397
Grating Groove Density (l/mm):2400
Grating Blaze:                BH
Output Flipper Port:          Direct
Accessory Output Port 1:      Off
Accessory Output Port 2:      Off
Accessory Output Port 3:      Off
Accessory Input Port:         On



388.1459	39114
388.15466	37964
388.16342	38362
388.17215	38592
388.18091	38506
388.18967	38846
388.19843	38500
388.20715	38570
388.21591	38608
388.22467	38600
388.2334	38731
388.24216	38815
388.25092	38589
388.25967	38696
388.2684	38593
388.27716	38597
388.28592	38429
388.29465	38621
388.30341	38730
388.31216	38670
388.32089	38520
388.32965	38496
388.33838	38482
388.34714	38538
388.3559	38176
388.36462	38094
388.37338	38204
388.38214	37745
388.39087	37751
388.39963	37946
388.40836	38093
388.41711	38124
388.42587	38209
388.4346	38422
388.44336	38118
388.45209	38036
388.46085	37871
388.46957	37978
388.47833	38030
388.48706	38310
388.49582	38066
388.50455	38308
388.51331	38220
388.52203	38326
388.53079	38366
388.53952	38434
388.54828	38131
388.55701	38093
388.56577	38213
388.57449	38287
388.58325	38240
388.59198	38423
388.60074	38297
388.60947	38361
388.61823	38262
388.62695	38253
388.63571	38186
388.64444	38042
388.65317	38266
388.66193	38610
388.67065	38423
388.67941	38160
388.68814	38299
388.69687	38514
388.70563	38215
388.71436	38155
388.72311	38374
388.73184	38462
388.74057	38134
388.74933	38255
388.75806	38504
388.76678	38277
388.77554	38117
388.78427	37897
388.793	38241
388.80176	38152
388.81049	38039
388.81921	38025
388.82797	37973
388.8367	37885
388.84543	37849
388.85416	37533
388.86292	37784
388.87164	37513
388.88037	37607
388.88913	37739
388.89786	37747
388.90659	37828
388.91531	37576
388.92407	37811
388.9328	37850
388.94153	37574
388.95026	37935
388.95898	38015
388.96774	37927
388.97647	37944
388.9852	38002
388.99393	38001
389.00266	38054
389.01141	37883
389.02014	38114
389.02887	38040
389.0376	38003
389.04633	37938
389.05505	38045
389.06378	37726
389.07254	37720
389.08127	37839
389.09	37961
389.09872	37875
389.10745	38173
389.11618	38459
389.12491	38356
389.13364	38251
389.14236	38051
389.15112	38129
389.15985	38391
389.16858	38104
389.17731	38452
389.18604	38656
389.19476	38455
389.20349	38378
389.21222	38507
389.22095	38342
389.22968	38080
389.2384	38326
389.24713	38325
389.25586	38316
389.26459	38019
389.27332	38317
389.28204	38242
389.29077	38291
389.2995	38264
389.30823	38199
389.31696	38400
389.32568	38181
389.33441	38110
389.34314	38082
389.35187	38035
389.3606	38053
389.36932	38160
389.37802	38286
389.38675	38217
389.39548	38483
389.40421	38321
389.41293	38271
389.42166	38319
389.43039	38168
389.43912	38032
389.44785	38157
389.45654	38017
389.46527	38126
389.474	38047
389.48273	37919
389.49146	37835
389.50018	38026
389.50891	38197
389.51761	38015
389.52634	37929
389.53506	37996
389.54379	38201
389.55252	38464
389.56122	38335
389.56995	38773
389.57867	38487
389.5874	38752
389.59613	38399
389.60483	38576
389.61356	38671
389.62228	38425
389.63101	38672
389.63971	38494
389.64844	38521
389.65717	38241
389.66586	38354
389.67459	38351
389.68332	38129
389.69205	38488
389.70074	38688
389.70947	38701
389.7182	38631
389.7269	38494
389.73563	38338
389.74435	38613
389.75305	38606
389.76178	38935
389.77051	39148
389.77921	39024
389.78793	39006
389.79666	39007
389.80536	39044
389.81409	38863
389.82278	38896
389.83151	39046
389.84024	39118
389.84894	38845
389.85767	38860
389.86636	39106
389.87509	38753
389.88382	38607
389.89252	38814
389.90125	38623
389.90994	38644
389.91867	38815
389.92737	38520
389.9361	38762
389.94479	38465
389.95352	38583
389.96222	38633
389.97095	38969
389.97964	38878
389.98837	39033
389.99707	38967
390.0058	39045
390.0145	38807
390.02322	38877
390.03192	38945
390.04065	38782
390.04935	38734
390.05807	38736
390.06677	38602
390.0755	38396
390.0842	38789
390.0929	38821
390.10162	38550
390.11032	38670
390.11905	38641
390.12775	38694
390.13644	38659
390.14517	38605
390.15387	38863
390.1626	39020
390.1713	38832
390.17999	38982
390.18872	38997
390.19742	38919
390.20612	38841
390.21484	38594
390.22354	39090
390.23224	38552
390.24097	38696
390.24966	38745
390.25836	38757
390.26709	38728
390.27579	38593
390.28448	38929
390.29318	39107
390.30191	39154
390.31061	38965
390.31931	38943
390.32803	38999
390.33673	38901
390.34543	38978
390.35413	39083
390.36285	38973
390.37155	39281
390.38025	39186
390.38895	39153
390.39764	39252
390.40637	39078
390.41507	39303
390.42377	39327
390.43246	39236
390.44116	38962
390.44989	39293
390.45859	39076
390.46729	39067
390.47598	39060
390.48468	38879
390.49338	38691
390.50208	38745
390.5108	38814
390.5195	38885
390.5282	39151
390.5369	38945
390.54559	39315
390.55429	39066
390.56299	39266
390.57169	39231
390.58038	39389
390.58908	39246
390.59781	39293
390.60651	39423
390.6152	39480
390.6239	39303
390.6326	39293
390.6413	39281
390.64999	39216
390.65869	39048
390.66739	39161
390.67609	39426
390.68478	39286
390.69348	38944
390.70218	38878
390.71088	39044
390.71957	39105
390.72827	38671
390.73697	39040
390.74567	38932
390.75436	38888
390.76306	38704
390.77176	38841
390.78046	38916
390.78912	38960
390.79782	38706
390.80652	39234
390.81522	38910
390.82391	38950
390.83261	38822
390.84131	39075
390.85001	38829
390.8587	38895
390.8674	38827
390.87607	38960
390.88477	38790
390.89346	38958
390.90216	39180
390.91086	38958
390.91956	38927
390.92825	39001
390.93692	38989
390.94562	39055
390.95432	38939
390.96301	39047
390.97171	39218
390.98038	38798
390.98907	39039
390.99777	38946
391.00647	39101
391.01517	38933
391.02383	39176
391.03253	38934
391.04123	39047
391.04993	38806
391.05859	38562
391.06729	39091
391.07599	38896
391.08469	38845
391.09335	38992
391.10205	38930
391.11075	38918
391.11942	38897
391.12811	39147
391.13681	39104
391.14548	38939
391.15417	38917
391.16287	39001
391.17154	39020
391.18024	38864
391.18893	38817
391.1976	38860
391.2063	38861
391.215	38613
391.22366	38520
391.23236	38494
391.24106	38612
391.24973	38181
391.25842	38596
391.26709	38407
391.27579	38551
391.28448	38458
391.29315	38452
391.30185	38424
391.31052	38220
391.31921	38350
391.32788	38540
391.33658	38601
391.34525	38646
391.35394	38651
391.36261	38874
391.37131	38506
391.38	38458
391.38867	38394
391.39737	38497
391.40604	38472
391.41473	38186
391.4234	38371
391.43207	38432
391.44077	38170
391.44943	38132
391.45813	38170
391.4668	38342
391.47549	38338
391.48416	38814
391.49286	38762
391.50153	38602
391.51019	38445
391.51889	38550
391.52756	38626
391.53625	38637
391.54492	38610
391.55359	38755
391.56229	38675
391.57095	38715
391.57965	38590
391.58832	38604
391.59698	38718
391.60568	38386
391.61435	38714
391.62302	38899
391.63171	38796
391.64038	38519
391.64905	38590
391.65775	38783
391.66641	38767
391.67508	38592
391.68378	38698
391.69244	38718
391.70111	38335
391.70978	38336
391.71848	38543
391.72714	38425
391.73581	38661
391.74451	38634
391.75317	38870
391.76184	38778
391.77051	38864
391.77917	38717
391.78787	38727
391.79654	38649
391.80521	38473
391.81387	38737
391.82257	38477
391.83124	38483
391.8399	38382
391.84857	38559
391.85724	38648
391.86591	38447
391.8746	38560
391.88327	38628
391.89194	38623
391.9006	38583
391.90927	38712
391.91794	39050
391.92661	39150
391.9353	39037
391.94397	39203
391.95264	39205
391.9613	38927
391.96997	39003
391.97864	39066
391.9873	38944
391.99597	39060
392.00464	39076
392.01331	39147
392.02197	39026
392.03064	38918
392.03931	39011
392.04797	38885
392.05664	38978
392.06534	39060
392.07401	39265
392.08267	39188
392.09134	39187
392.10001	38753
392.10867	39201
392.11734	39220
392.12598	39404
392.13464	39518
392.14331	39680
392.15198	39682
392.16064	39483
392.16931	39429
392.17798	39520
392.18665	39659
392.19531	39359
392.20398	39574
392.21265	39546
392.22131	39420
392.22998	39329
392.23865	39334
392.24731	39346
392.25595	39057
392.26462	39020
392.27328	38925
392.28195	39062
392.29062	39141
392.29929	39030
392.30795	39091
392.31659	39257
392.32526	39172
392.33392	39599
392.34259	39533
392.35126	39391
392.35992	39354
392.36856	39443
392.37723	39583
392.38589	39296
392.39456	39147
392.40323	39447
392.41187	39346
392.42053	39138
392.4292	38990
392.43787	39136
392.4465	39095
392.45517	39278
392.46384	39092
392.4725	39224
392.48114	39240
392.48981	39180
392.49847	39207
392.50711	39275
392.51578	39302
392.52444	39389
392.53308	39388
392.54175	39507
392.55042	39467
392.55905	39336
392.56772	39155
392.57639	39408
392.58502	38980
392.59369	39179
392.60236	39265
392.61099	39315
392.61966	39245
392.62833	38888
392.63696	39116
392.64563	39496
392.65427	39222
392.66293	39422
392.6716	39723
392.68024	39420
392.6889	39256
392.69754	39172
392.70621	39495
392.71484	39466
392.72351	39499
392.73215	39592
392.74081	39656
392.74948	39796
392.75812	39459
392.76678	39755
392.77542	39789
392.78409	39736
392.79272	39689
392.80139	39660
392.81003	39633
392.8187	39443
392.82733	39402
392.83597	39544
392.84464	39347
392.85327	39018
392.86194	39024
392.87057	39242
392.87924	39390
392.88788	39421
392.89655	39598
392.90518	39468
392.91382	39643
392.92249	39356
392.93112	39716
392.93979	39682
392.94843	39442
392.95706	39417
392.96573	39618
392.97437	39615
392.983	39645
392.99167	39491
393.00031	39571
393.00894	39350
393.01761	39249
393.02625	39225
393.03488	39249
393.04355	39164
393.05219	39024
393.06082	38972
393.06949	39105
393.07813	39151
393.08676	38814
393.09543	38946
393.10406	39060
393.1127	38981
393.12134	38815
393.13	39033
393.13864	39209
393.14728	39177
393.15591	39103
393.16455	39237
393.17322	39030
393.18185	38938
393.19049	38961
393.19913	39106
393.20779	39115
393.21643	38944
393.22507	38856
393.2337	39312
393.24234	39166
393.25098	39330
393.25964	39135
393.26828	39184
393.27692	39059
393.28555	39011
393.29419	39089
393.30283	39132
393.31146	39051
393.3201	38916
393.32877	39084
393.3374	39066
393.34604	39058
393.35468	38977
393.36331	39138
393.37195	39162
393.38058	38974
393.38922	39123
393.39786	39074
393.40649	39170
393.41513	39139
393.42377	39165
393.4324	39287
393.44104	39352
393.44968	39250
393.45831	39171
393.46695	39291
393.47559	39186
393.48422	39165
393.49286	39352
393.5015	39374
393.51013	39161
393.51877	39185
393.5274	39415
393.53604	39629
393.54468	39278
393.55331	39547
393.56195	39417
393.57059	39392
393.57922	39233
393.58786	39478
393.5965	39316
393.60513	39398
393.61374	39396
393.62238	39479
393.63101	39518
393.63965	39358
393.64828	39114
393.65692	39204
393.66556	39259
393.67419	39378
393.6828	39429
393.69144	39473
393.70007	39838
393.70871	39492
393.71735	39616
393.72598	39687
393.73459	39892
393.74323	39783
393.75186	39570
393.7605	39893
393.76913	39731
393.77774	39678
393.78638	39429
393.79501	39624
393.80365	39576
393.81226	39551
393.82089	39789
393.82953	39991
393.83817	40088
393.84677	39682
393.85541	39696
393.86404	39766
393.87265	39776
393.88129	39759
393.88992	39871
393.89853	39992
393.90717	39948
393.9158	39713
393.92444	39842
393.93304	39878
393.94168	39671
393.95029	39629
393.95892	39962
393.96756	39795
393.97617	39749
393.9848	39756
393.99344	39720
394.00204	39790
394.01068	39661
394.01929	39722
394.02792	40017
394.03656	39723
394.04517	39619
394.0538	39554
394.06241	39598
394.07104	39580
394.07965	39654
394.08829	39793
394.09689	39937
394.10553	40006
394.11417	39817
394.12277	39914
394.13141	39957
394.14001	39687
394.14865	39638
394.15726	39486
394.16589	39749
394.1745	39466
394.18314	39370
394.19174	39314
394.20035	39688
394.20898	39447
394.21759	39427
394.22623	39597
394.23483	39448
394.24347	39596
394.25208	39322
394.26071	39623
394.26932	39876
394.27792	40037
394.28656	39876
394.29517	39898
394.3038	40158
394.31241	39759
394.32101	39814
394.32965	39827
394.33826	39882
394.34686	39704
394.3555	39893
394.36411	39861
394.37271	39728
394.38135	39727
394.38995	39877
394.39856	39898
394.4072	40098
394.4158	39935
394.42441	40071
394.43304	39991
394.44165	39892
394.45026	39798
394.45886	40088
394.4675	40168
394.4761	40349
394.48471	40449
394.49332	40572
394.50195	40570
394.51056	40449
394.51917	40477
394.52777	40507
394.53641	40547
394.54501	40492
394.55362	40479
394.56223	40324
394.57083	40384
394.57944	40284
394.58807	40091
394.59668	40237
394.60529	39824
394.61389	39943
394.6225	39999
394.6311	40122
394.63974	40209
394.64835	40197
394.65695	40125
394.66556	40244
394.67416	40282
394.68277	40355
394.69138	40527
394.69998	40424
394.70859	40463
394.71719	40515
394.72583	40257
394.73444	40556
394.74304	40347
394.75165	40223
394.76025	40390
394.76886	40247
394.77747	40169
394.78607	40178
394.79468	40382
394.80328	40579
394.81189	40143
394.8205	40346
394.8291	40347
394.83771	40517
394.84631	40317
394.85492	40199
394.86353	40597
394.87213	40302
394.88074	40392
394.88934	40538
394.89795	40456
394.90656	40507
394.91516	40169
394.92374	40381
394.93234	40279
394.94095	40346
394.94955	40334
394.95816	40365
394.96677	40340
394.97537	40297
394.98398	40257
394.99258	40460
395.00116	40549
395.00977	40551
395.01837	40486
395.02698	40694
395.03558	40481
395.04419	40361
395.0528	40641
395.06137	40527
395.06998	40692
395.07858	40728
395.08719	40647
395.09579	40968
395.10437	40768
395.11298	40601
395.12158	40796
395.13019	40899
395.13876	40803
395.14737	40825
395.15598	40714
395.16458	40946
395.17316	40789
395.18176	40772
395.19037	40665
395.19897	40485
395.20755	40431
395.21616	40641
395.22476	40722
395.23334	40895
395.24194	40939
395.25055	40797
395.25912	41075
395.26773	41163
395.27634	41011
395.28491	40908
395.29352	41034
395.30212	40983
395.3107	41173
395.31931	40863
395.32791	41302
395.33649	41114
395.34509	41068
395.35367	40907
395.36227	41016
395.37088	40988
395.37946	40773
395.38806	40963
395.39664	41027
395.40524	40918
395.41382	40685
395.42242	40500
395.431	40778
395.43961	40314
395.44821	40473
395.45679	40376
395.46539	40456
395.47397	40297
395.48257	40444
395.49115	40517
395.49976	40476
395.50833	40404
395.51694	40440
395.52551	40404
395.53409	40706
395.54269	40695
395.55127	40541
395.55988	40591
395.56845	40647
395.57706	40781
395.58563	40810
395.59424	40953
395.60281	40660
395.61139	40836
395.62	40632
395.62857	40727
395.63718	40734
395.64575	40462
395.65433	40644
395.66293	40807
395.67151	40572
395.68008	40751
395.68869	40737
395.69727	41094
395.70584	41014
395.71445	41074
395.72302	41003
395.7316	41003
395.7402	40796
395.74878	41074
395.75735	41083
395.76596	41202
395.77454	41348
395.78311	41022
395.79169	41359
395.80029	41257
395.80887	41319
395.81744	41250
395.82602	41465
395.83463	41260
395.8432	41219
395.85178	41224
395.86035	41276
395.86893	41367
395.87753	41266
395.88611	41459
395.89468	41462
395.90326	41534
395.91183	41110
395.92044	41209
395.92902	41370
395.93759	41415
395.94617	41315
395.95474	41757
395.96332	41841
395.97192	41518
395.9805	41414
395.98907	41206
395.99765	41089
396.00623	41257
396.0148	41288
396.02338	41263
396.03195	41498
396.04053	41403
396.0491	41372
396.05768	41391
396.06628	41562
396.07486	41476
396.08344	41630
396.09201	41577
396.10059	41582
396.10916	41637
396.11774	41393
396.12631	41339
396.13489	41538
396.14346	41140
396.15204	41318
396.16061	41571
396.16919	41846
396.17776	41898
396.18634	41679
396.19492	41632
396.20349	41764
396.21207	41876
396.22061	41763
396.22919	41902
396.23776	41961
396.24634	42072
396.25491	41875
396.26349	42172
396.27206	41812
396.28064	41911
396.28922	41851
396.29779	41948
396.30637	41664
396.31491	41747
396.32349	41697
396.33206	41813
396.34064	41812
396.34921	41846
396.35779	41830
396.36636	41815
396.37491	41714
396.38348	41529
396.39206	41487
396.40063	41344
396.40921	41635
396.41776	41597
396.42633	41767
396.43491	41898
396.44348	41729
396.45203	42007
396.4606	41725
396.46918	41746
396.47775	41649
396.4863	41838
396.49487	41427
396.50345	41666
396.51202	41503
396.52057	41426
396.52914	41509
396.53772	41586
396.54626	41352
396.55484	41401
396.56342	41453
396.57199	41389
396.58054	41337
396.58911	41310
396.59766	41570
396.60623	41542
396.61481	41725
396.62335	41724
396.63193	41680
396.6405	41605
396.64905	41473
396.65762	41541
396.66617	41616
396.67474	41633
396.68332	41648
396.69186	41357
396.70044	41599
396.70898	41645
396.71756	41624
396.72614	41555
396.73468	41773
396.74326	41764
396.7518	41709
396.76038	41791
396.76892	41584
396.7775	41813
396.78604	41569
396.79462	41714
396.80316	41950
396.81174	41992
396.82028	42019
396.82886	42083
396.8374	42162
396.84598	42175
396.85452	42033
396.8631	42243
396.87164	41944
396.88019	42196
396.88876	41809
396.89731	41980
396.90588	42029
396.91443	41886
396.92297	41689
396.93155	41778
396.94009	41810
396.94867	41748
396.95721	41903
396.96576	41857
396.97433	41913
396.98288	42029
396.99142	42099
397	41149
397.00854	41348
397.01709	42515
397.02567	42037
397.03421	42156
397.04276	42113
397.05133	42237
397.05988	42118
397.06842	42012
397.077	42092
397.08554	42196
397.09409	41922
397.10263	42031
397.11121	41947
397.11975	42039
397.1283	41913
397.13684	42185
397.14542	42247
397.15396	42207
397.16251	42055
397.17105	42146
397.17963	42242
397.18817	42240
397.19672	42348
397.20526	42363
397.21381	42287
397.22235	42368
397.23093	42183
397.23947	42267
397.24802	42086
397.25656	41947
397.26511	42352
397.27365	42014
397.28223	42224
397.29077	42321
397.29932	42284
397.30786	42131
397.31641	42496
397.32495	42170
397.3335	42632
397.34204	42474
397.35059	42117
397.35913	42569
397.36768	42391
397.37622	42390
397.3848	42332
397.39334	42487
397.40189	42735
397.41043	42650
397.41898	42795
397.42752	42475
397.43607	42609
397.44461	42707
397.45316	42398
397.4617	42584
397.47025	42913
397.47879	42542
397.48734	42562
397.49588	42525
397.50439	42522
397.51294	42523
397.52148	42178
397.53003	42383
397.53857	42319
397.54712	42319
397.55566	42543
397.56421	42494
397.57275	42522
397.5813	42740
397.58984	42747
397.59839	42646
397.6069	42704
397.61545	42557
397.62399	42543
397.63254	42860
397.64108	42725
397.64963	42642
397.65817	42537
397.66669	42384
397.67523	42433
397.68378	42182
397.69232	42036
397.70087	42610
397.70938	42263
397.71793	42360
397.72647	42638
397.73502	42324
397.74356	42492
397.75208	42158
