Date and Time:                Fri Oct 7 12:14:35.000 2022
Software Version:             4.31.30023.0
Temperature (C):              -40
Model:                        DU940P_BU2
Data Type:                    Counts
Acquisition Mode:             Single Scan
Trigger Mode:                 Internal
Exposure Time (secs):         0.35
Readout Mode:                 Full Vertical Binning
Horizontal binning:           1
Extended Dynamic Range:       off
Horizontally flipped:         false
Vertical Shift Speed (usecs): 14.51
Pixel Readout Rate (MHz):     3
Baseline Clamp:               ON
Clock Amplitude:              Normal
Output Amplifier:             High Capacity
Serial Number:                23634
Pre-Amplifier Gain:           1.000000
Spurious Noise Filter Mode:   No Filter
Photon counted:               false
Data Averaging Filter Mode:   No Filter
SR500i:
Serial Number:                
Wavelength (nm):              260
Grating Groove Density (l/mm):1199.47
Grating Blaze:                500
Output Flipper Port:          Direct
Accessory Output Port 1:      Off
Accessory Output Port 2:      Off
Accessory Output Port 3:      Off
Accessory Input Port:         On



238.25345	3889
238.27481	3712
238.29616	3749
238.31752	3708
238.33887	3730
238.36021	3772
238.38158	3758
238.40292	3803
238.42427	3730
238.44563	3782
238.46698	3765
238.48833	3722
238.50969	3733
238.53104	3729
238.55238	3747
238.57375	3742
238.59509	3728
238.61644	3741
238.63779	3777
238.65915	3803
238.6805	3779
238.70184	3765
238.72319	3794
238.74454	3783
238.7659	3780
238.78725	3805
238.80859	3806
238.82994	3840
238.85129	3848
238.87263	3834
238.89398	3807
238.91534	3835
238.93669	3857
238.95804	3865
238.97939	3869
239.00073	3851
239.02208	3839
239.04343	3884
239.06477	3889
239.08612	3885
239.10747	3850
239.12881	3860
239.15016	3824
239.17151	3849
239.19286	3855
239.2142	3889
239.23555	3888
239.2569	3895
239.27823	3879
239.29958	3903
239.32092	3894
239.34227	3878
239.36362	3901
239.38496	3929
239.40631	3918
239.42764	3888
239.44899	3955
239.47034	3939
239.49168	3962
239.51303	3978
239.53436	3917
239.55571	3940
239.57706	3968
239.5984	3938
239.61974	3924
239.64108	3935
239.66243	3953
239.68376	3937
239.70511	3898
239.72646	3923
239.74779	3904
239.76913	3927
239.79048	3921
239.81181	3949
239.83316	3946
239.85451	3895
239.87584	3950
239.89719	3944
239.91852	3947
239.93987	3920
239.9612	3944
239.98254	3946
240.00388	3948
240.02522	3952
240.04655	3971
240.0679	3996
240.08923	3975
240.11058	3962
240.13191	3989
240.15326	4007
240.17459	4012
240.19592	3992
240.21727	4000
240.2386	3994
240.25995	3987
240.28128	4023
240.30261	4010
240.32396	4039
240.34529	4011
240.36662	4056
240.38797	4049
240.4093	4047
240.43063	4039
240.45197	4055
240.47331	4082
240.49464	4055
240.51598	4079
240.53731	4111
240.55865	4071
240.57999	4072
240.60132	4090
240.62265	4090
240.64398	4085
240.66533	4106
240.68666	4110
240.70799	4129
240.72932	4081
240.75066	4114
240.77199	4108
240.79332	4129
240.81465	4139
240.83598	4160
240.85732	4126
240.87865	4164
240.89998	4128
240.92133	4128
240.94266	4145
240.96397	4101
240.98531	4151
241.00664	4153
241.02797	4149
241.0493	4147
241.07063	4171
241.09196	4179
241.1133	4145
241.13463	4158
241.15596	4128
241.17729	4137
241.19862	4138
241.21994	4158
241.24127	4116
241.2626	4135
241.28394	4148
241.30527	4174
241.3266	4175
241.34792	4176
241.36925	4162
241.39058	4189
241.41191	4187
241.43323	4186
241.45456	4232
241.47589	4236
241.49721	4251
241.51854	4265
241.53987	4250
241.5612	4278
241.58252	4273
241.60385	4239
241.62517	4288
241.6465	4291
241.66783	4257
241.68915	4286
241.71048	4323
241.7318	4317
241.75313	4304
241.77446	4324
241.79578	4337
241.81711	4377
241.83842	4397
241.85976	4374
241.88107	4344
241.9024	4387
241.92372	4432
241.94504	4402
241.96637	4413
241.98769	4428
242.00902	4456
242.03033	4461
242.05167	4497
242.07298	4456
242.0943	4443
242.11563	4477
242.13695	4470
242.15826	4497
242.1796	4505
242.20091	4484
242.22223	4483
242.24356	4531
242.26488	4486
242.28619	4485
242.30751	4477
242.32884	4508
242.35016	4473
242.37148	4467
242.39279	4491
242.41411	4502
242.43544	4555
242.45676	4572
242.47807	4579
242.49939	4574
242.52071	4609
242.54202	4584
242.56334	4593
242.58467	4602
242.60599	4614
242.6273	4624
242.64862	4598
242.66994	4592
242.69125	4597
242.71257	4588
242.73389	4596
242.7552	4620
242.77652	4622
242.79784	4636
242.81915	4618
242.84047	4612
242.86179	4633
242.8831	4651
242.90442	4711
242.92572	4711
242.94704	4721
242.96835	4756
242.98967	4736
243.01099	4727
243.0323	4680
243.05362	4658
243.07492	4694
243.09624	4691
243.11755	4693
243.13887	4697
243.16019	4701
243.18149	4695
243.2028	4687
243.22412	4712
243.24544	4758
243.26674	4760
243.28806	4745
243.30937	4762
243.33067	4744
243.35199	4742
243.37331	4740
243.39461	4797
243.41592	4833
243.43724	4814
243.45854	4844
243.47986	4841
243.50116	4858
243.52248	4830
243.54378	4851
243.56509	4871
243.58641	4855
243.60771	4824
243.62903	4796
243.65033	4824
243.67165	4841
243.69295	4811
243.71426	4842
243.73557	4797
243.75687	4791
243.77818	4755
243.79948	4801
243.8208	4824
243.8421	4808
243.8634	4806
243.88472	4854
243.90602	4884
243.92732	4877
243.94864	4907
243.96994	4864
243.99124	4896
244.01256	4888
244.03386	4904
244.05516	4885
244.07646	4898
244.09778	4893
244.11908	4840
244.14038	4842
244.16168	4837
244.183	4874
244.2043	4837
244.2256	4820
244.2469	4825
244.2682	4806
244.28951	4801
244.31082	4819
244.33212	4804
244.35342	4840
244.37473	4842
244.39603	4869
244.41733	4858
244.43863	4845
244.45993	4848
244.48123	4825
244.50253	4846
244.52383	4846
244.54514	4858
244.56644	4870
244.58774	4883
244.60904	4876
244.63034	4871
244.65164	4903
244.67294	4891
244.69424	4937
244.71555	4943
244.73683	4914
244.75813	4940
244.77943	4910
244.80074	4908
244.82204	4894
244.84334	4887
244.86462	4895
244.88593	4921
244.90723	4943
244.92853	4907
244.94983	4898
244.97112	4917
244.99242	4956
245.01372	4987
245.035	4966
245.0563	4958
245.07761	4961
245.09889	5004
245.12019	4989
245.14149	4966
245.16278	4983
245.18408	4997
245.20538	4978
245.22667	4998
245.24797	4976
245.26926	5003
245.29056	5028
245.31186	5058
245.33315	5054
245.35445	5067
245.37573	5075
245.39703	5098
245.41832	5110
245.43962	5119
245.46091	5153
245.48219	5153
245.50349	5115
245.52478	5136
245.54608	5102
245.56737	5120
245.58867	5140
245.60995	5141
245.63124	5162
245.65254	5193
245.67383	5194
245.69511	5155
245.71642	5179
245.7377	5176
245.75899	5189
245.78027	5212
245.80157	5253
245.82286	5261
245.84415	5239
245.86543	5249
245.88673	5325
245.90802	5285
245.92931	5313
245.95059	5360
245.97188	5351
245.99318	5347
246.01447	5303
246.03575	5324
246.05704	5338
246.07832	5341
246.09961	5351
246.1209	5359
246.14218	5433
246.16347	5451
246.18475	5430
246.20604	5392
246.22733	5416
246.24861	5395
246.2699	5434
246.29118	5460
246.31247	5464
246.33376	5533
246.35504	5470
246.37633	5500
246.39761	5474
246.4189	5498
246.44019	5487
246.46147	5488
246.48276	5545
246.50403	5545
246.52531	5533
246.5466	5517
246.56789	5552
246.58917	5551
246.61046	5568
246.63173	5570
246.65302	5578
246.6743	5587
246.69559	5613
246.71686	5586
246.73814	5592
246.75943	5632
246.7807	5630
246.80199	5664
246.82327	5702
246.84454	5686
246.86583	5701
246.88712	5685
246.90839	5704
246.92967	5681
246.95096	5661
246.97223	5652
246.99352	5679
247.01479	5677
247.03607	5657
247.05734	5734
247.07863	5772
247.0999	5780
247.12119	5729
247.14246	5762
247.16374	5768
247.18501	5755
247.2063	5774
247.22757	5854
247.24886	5958
247.27013	5960
247.2914	5953
247.31268	5950
247.33395	5948
247.35522	5946
247.37651	5969
247.39778	5967
247.41905	5985
247.44034	5967
247.46161	5995
247.48288	5968
247.50417	5956
247.52544	6002
247.54671	6000
247.56798	6067
247.58926	6050
247.61053	6087
247.63181	6103
247.65308	6077
247.67435	6048
247.69562	6059
247.7169	6088
247.73817	6136
247.75945	6184
247.78072	6184
247.80199	6200
247.82326	6170
247.84453	6180
247.8658	6180
247.88707	6138
247.90834	6148
247.92961	6118
247.95088	6142
247.97215	6097
247.99342	6059
248.01469	6091
248.03596	6091
248.05724	6118
248.07851	6058
248.09978	6020
248.12105	6051
248.14232	6045
248.16359	6070
248.18484	5984
248.20612	6037
248.22739	6068
248.24866	6125
248.26993	6129
248.2912	6122
248.31245	6196
248.33372	6128
248.355	6129
248.37627	6108
248.39752	6098
248.41879	6097
248.44006	6107
248.46132	6069
248.48259	6048
248.50386	6078
248.52512	6089
248.54639	6069
248.56766	6066
248.58891	6075
248.61018	6074
248.63145	6121
248.65271	6064
248.67398	6076
248.69524	6097
248.71651	6106
248.73776	6131
248.75903	6139
248.78029	6173
248.80156	6118
248.82281	6084
248.84409	6133
248.86534	6134
248.88661	6133
248.90787	6128
248.92912	6114
248.95039	6124
248.97165	6110
248.99292	6100
249.01418	6172
249.03543	6188
249.0567	6199
249.07796	6227
249.09921	6199
249.12048	6169
249.14174	6174
249.16299	6190
249.18425	6237
249.20552	6290
249.22678	6338
249.24803	6310
249.26929	6334
249.29056	6337
249.31181	6311
249.33307	6320
249.35432	6296
249.37558	6304
249.39684	6307
249.41809	6346
249.43936	6338
249.46062	6354
249.48187	6355
249.50313	6314
249.52438	6228
249.54564	6205
249.56689	6252
249.58815	6276
249.60941	6380
249.63066	6336
249.65192	6306
249.67317	6316
249.69443	6376
249.71568	6418
249.73694	6351
249.75819	6369
249.77945	6353
249.80069	6404
249.82195	6378
249.8432	6353
249.86446	6400
249.88571	6407
249.90697	6368
249.92821	6326
249.94946	6350
249.97072	6396
249.99197	6395
250.01323	6429
250.03447	6438
250.05573	6397
250.07698	6370
250.09822	6367
250.11948	6375
250.14073	6338
250.16197	6349
250.18323	6347
250.20448	6380
250.22572	6440
250.24698	6375
250.26823	6344
250.28947	6353
250.31073	6367
250.33197	6408
250.35323	6382
250.37447	6441
250.39572	6439
250.41696	6461
250.43822	6406
250.45946	6474
250.48071	6521
250.50195	6553
250.52321	6553
250.54445	6506
250.5657	6522
250.58694	6499
250.60818	6531
250.62944	6480
250.65068	6510
250.67194	6513
250.69318	6527
250.71442	6595
250.73567	6596
250.75691	6593
250.77815	6614
250.79939	6642
250.82065	6649
250.84189	6649
250.86313	6673
250.88437	6676
250.90562	6704
250.92686	6678
250.9481	6703
250.96935	6689
250.99059	6629
251.01183	6692
251.03308	6700
251.05432	6740
251.07556	6783
251.0968	6766
251.11804	6732
251.13928	6707
251.16052	6731
251.18176	6746
251.203	6768
251.22424	6793
251.24548	6794
251.26672	6763
251.28796	6756
251.3092	6792
251.33044	6821
251.35168	6827
251.37292	6829
251.39417	6906
251.41541	6880
251.43665	6888
251.45787	6837
251.47911	6815
251.50035	6759
251.52159	6771
251.54283	6783
251.56407	6824
251.5853	6858
251.60654	6843
251.62778	6872
251.64902	6854
251.67024	6876
251.69148	6931
251.71272	6936
251.73395	6984
251.75519	6958
251.77643	6980
251.79767	6946
251.81889	6930
251.84013	7025
251.86136	6984
251.8826	6956
251.90384	7021
251.92506	7095
251.9463	7122
251.96753	7107
251.98877	7100
252.00999	7108
252.03123	7168
252.05246	7209
252.0737	7213
252.09492	7294
252.11617	7276
252.13739	7306
252.15863	7351
252.17986	7278
252.20108	7291
252.22232	7262
252.24355	7305
252.26479	7350
252.28601	7342
252.30724	7327
252.32848	7298
252.3497	7353
252.37093	7297
252.39217	7339
252.41339	7348
252.43462	7319
252.45584	7305
252.47708	7292
252.49831	7302
252.51953	7282
252.54076	7353
252.56198	7368
252.58321	7422
252.60445	7438
252.62567	7472
252.6469	7455
252.66812	7415
252.68935	7407
252.71057	7465
252.7318	7473
252.75302	7458
252.77425	7429
252.79547	7403
252.8167	7421
252.83792	7420
252.85915	7378
252.88037	7375
252.9016	7410
252.92282	7385
252.94405	7417
252.96527	7389
252.9865	7454
253.00772	7501
253.02895	7600
253.05017	7609
253.0714	7585
253.09261	7604
253.11383	7569
253.13506	7618
253.15628	7518
253.17751	7540
253.19872	7515
253.21994	7560
253.24117	7521
253.26239	7525
253.2836	7541
253.30482	7522
253.32605	7512
253.34726	7646
253.36848	7677
253.38971	7663
253.41092	7650
253.43214	7620
253.45337	7642
253.47458	7701
253.4958	7713
253.51701	7769
253.53824	7867
253.55946	7875
253.58067	7851
253.6019	7858
253.62311	7845
253.64433	7863
253.66554	7866
253.68677	7866
253.70798	7877
253.72919	7848
253.75041	7843
253.77162	7834
253.79285	7863
253.81406	7806
253.83527	7735
253.85649	7792
253.8777	7793
253.89893	7841
253.92014	7901
253.94135	7859
253.96255	7854
253.98378	7862
254.00499	7907
254.0262	7967
254.04741	8014
254.06863	8015
254.08984	8044
254.11105	8058
254.13226	8018
254.15347	7993
254.1747	8002
254.19591	8005
254.21712	8057
254.23833	7997
254.25954	7973
254.28075	8025
254.30196	8073
254.32317	8065
254.34438	8069
254.36559	8070
254.3868	8107
254.408	8047
254.42921	8045
254.45042	8072
254.47163	8129
254.49284	8152
254.51405	8171
254.53526	8195
254.55647	8194
254.57768	8170
254.59889	8095
254.6201	8175
254.64131	8121
254.66251	8160
254.68372	8205
254.70493	8208
254.72614	8198
254.74734	8173
254.76854	8184
254.78975	8274
254.81096	8295
254.83217	8318
254.85336	8309
254.87457	8288
254.89578	8283
254.91698	8267
254.93819	8351
254.9594	8356
254.98059	8494
255.0018	8510
255.02301	8462
255.0442	8469
255.06541	8551
255.08661	8573
255.10782	8530
255.12901	8515
255.15022	8568
255.17143	8512
255.19263	8539
255.21384	8585
255.23503	8605
255.25623	8575
255.27744	8490
255.29863	8458
255.31984	8454
255.34103	8536
255.36224	8593
255.38344	8681
255.40463	8627
255.42584	8596
255.44704	8661
255.46823	8772
255.48944	8749
255.51064	8711
255.53183	8668
255.55302	8744
255.57423	8700
255.59543	8719
255.61662	8743
255.63782	8807
255.65903	8763
255.68022	8729
255.70142	8711
255.72261	8761
255.7438	8777
255.765	8832
255.78619	8861
255.8074	8887
255.8286	8862
255.84979	8779
255.87099	8734
255.89218	8699
255.91338	8658
255.93457	8697
255.95576	8800
255.97696	8900
255.99815	8841
256.01935	8836
256.04053	8804
256.06174	8852
256.08292	8867
256.10413	8866
256.12531	8990
256.14651	9011
256.16769	9057
256.1889	8969
256.21008	8971
256.23126	9025
256.25247	9101
256.27365	9151
256.29486	9157
256.31604	9168
256.33722	9167
256.35843	9186
256.37961	9110
256.40079	9079
256.422	9098
256.44318	9072
256.46436	9142
256.48557	9167
256.50674	9179
256.52792	9218
256.54913	9265
256.57031	9271
256.59149	9310
256.6127	9249
256.63388	9252
256.65506	9302
256.67624	9374
256.69745	9389
256.71863	9365
256.73981	9376
256.76099	9382
256.7822	9378
256.80338	9412
256.82455	9461
256.84573	9490
256.86691	9440
256.88812	9459
256.9093	9488
256.93048	9490
256.95166	9542
256.97284	9606
256.99405	9628
257.01523	9674
257.03641	9543
257.05759	9599
257.07877	9650
257.09995	9693
257.12112	9725
257.1423	9674
257.16351	9788
257.18469	9836
257.20587	9784
257.22705	9711
257.24823	9602
257.26941	9644
257.29059	9627
257.31177	9604
257.33295	9680
257.35413	9764
257.37531	9687
257.39648	9725
257.41766	9753
257.43884	9794
257.46002	9804
257.4812	9786
257.50238	9861
257.52356	9878
257.54474	9868
257.56592	9818
257.5871	9856
257.60828	9849
257.62946	9757
257.65063	9846
257.67181	9930
257.69299	10070
257.71417	10139
257.73535	10076
257.75653	10072
257.77771	10045
257.79889	10092
257.82004	10148
257.84122	10214
257.8624	10267
257.88358	10290
257.90475	10289
257.92593	10325
257.94711	10329
257.96826	10310
257.98944	10315
258.01062	10433
258.0318	10431
258.05298	10397
258.07416	10359
258.09531	10371
258.11649	10393
258.13766	10432
258.15884	10404
258.17999	10391
258.20117	10370
258.22235	10311
258.24353	10345
258.26468	10316
258.28586	10371
258.30704	10425
258.32822	10517
258.34937	10606
258.37054	10565
258.39172	10572
258.41287	10592
258.43405	10626
258.45523	10553
258.47638	10516
258.49756	10606
258.51874	10617
258.53989	10584
258.56107	10566
258.58224	10517
258.60339	10565
258.62457	10649
258.64575	10628
258.6669	10641
258.68808	10630
258.70923	10688
258.73041	10668
258.75156	10711
258.77274	10896
258.79391	11006
258.81506	11031
258.83624	11065
258.85739	10951
258.87857	10923
258.89972	10894
258.9209	10908
258.94205	10902
258.96323	10947
258.98438	10997
259.00555	10984
259.0267	10941
259.04788	10947
259.06903	10910
259.09021	10932
259.11136	11040
259.13254	11043
259.15369	11060
259.17484	11004
259.19601	10985
259.21716	10964
259.23834	10981
259.25949	11060
259.28067	11186
259.30182	11371
259.32297	11413
259.34415	11442
259.3653	11509
259.38644	11524
259.40762	11541
259.42877	11631
259.44992	11653
259.4711	11649
259.49225	11601
259.5134	11603
259.53458	11586
259.55573	11516
259.57687	11509
259.59805	11508
259.6192	11602
259.64035	11731
259.6615	11765
259.68268	11750
259.70383	11712
259.72498	11687
259.74612	11825
259.7673	11897
259.78845	12035
259.8096	12024
259.83075	12026
259.85193	12093
259.87308	12129
259.89423	12147
259.91537	11979
259.93652	12086
259.95767	12084
259.97885	12082
260	12104
260.02115	12089
260.0423	12205
260.06345	12323
260.08459	12397
260.10574	12480
260.12692	12500
260.14807	12492
260.16922	12404
260.19037	12451
260.21152	12486
260.23267	12542
260.25381	12594
260.27496	12639
260.29611	12718
260.31726	12609
260.33841	12626
260.35956	12597
260.38071	12627
260.40186	12702
260.423	12740
260.44415	12802
260.4653	12758
260.48645	12808
260.5076	12731
260.52875	12855
260.5499	12887
260.57104	12949
260.59219	12892
260.61334	12964
260.63449	12950
260.65564	12928
260.67679	12923
260.69794	12987
260.71909	13028
260.74023	13034
260.76138	13060
260.7825	13033
260.80365	13048
260.8248	13069
260.84595	13075
260.8671	13148
260.88824	13140
260.90939	13180
260.93051	13201
260.95166	13201
260.97281	13221
260.99396	13213
261.01511	13103
261.03622	13082
261.05737	13126
261.07852	13250
261.09967	13285
261.12082	13324
261.14194	13367
261.16309	13334
261.18423	13378
261.20538	13296
261.2265	13353
261.24765	13379
261.2688	13421
261.28992	13380
261.31107	13390
261.33221	13362
261.35336	13359
261.37448	13402
261.39563	13424
261.41678	13384
261.4379	13391
261.45905	13415
261.48019	13494
261.50131	13491
261.52246	13420
261.54358	13381
261.56473	13403
261.58588	13348
261.60699	13144
261.62814	13082
261.64926	13040
261.67041	13003
261.69156	13024
261.71268	13100
261.73383	13145
261.75494	13138
261.77609	13111
261.79721	13095
261.81836	13187
261.83948	13123
261.86063	13190
261.88174	13241
261.90289	13324
261.92401	13336
261.94516	13364
261.96628	13337
261.98743	13495
262.00854	13582
262.02969	13594
262.05081	13615
262.07196	13565
262.09308	13439
262.11423	13378
262.13535	13381
262.15646	13410
262.17761	13452
262.19873	13415
262.21988	13513
262.241	13611
262.26212	13680
262.28326	13687
262.30438	13678
262.3255	13657
262.34665	13758
262.36777	13848
262.38889	13867
262.41003	13953
262.43115	14002
262.45227	13938
262.47342	13988
262.49454	13962
262.51566	13877
262.53677	13825
262.55792	13908
262.57904	13949
262.60016	13970
262.62131	13993
262.64243	13995
262.66354	13973
262.68466	13995
262.70578	14076
262.72693	14103
262.74805	14160
262.76917	14112
262.79028	14041
262.8114	13966
262.83255	14082
262.85367	14093
262.87479	14167
262.8959	14282
262.91702	14345
262.93814	14387
262.95926	14383
262.98041	14205
263.00153	14150
