Date and Time:                Fri Oct 7 12:09:30.000 2022
Software Version:             4.31.30023.0
Temperature (C):              -40
Model:                        DU940P_BU2
Data Type:                    Counts
Acquisition Mode:             Single Scan
Trigger Mode:                 Internal
Exposure Time (secs):         0.35
Readout Mode:                 Full Vertical Binning
Horizontal binning:           1
Extended Dynamic Range:       off
Horizontally flipped:         false
Vertical Shift Speed (usecs): 14.51
Pixel Readout Rate (MHz):     3
Baseline Clamp:               ON
Clock Amplitude:              Normal
Output Amplifier:             High Capacity
Serial Number:                23634
Pre-Amplifier Gain:           1.000000
Spurious Noise Filter Mode:   No Filter
Photon counted:               false
Data Averaging Filter Mode:   No Filter
SR500i:
Serial Number:                
Wavelength (nm):              260
Grating Groove Density (l/mm):1199.47
Grating Blaze:                500
Output Flipper Port:          Direct
Accessory Output Port 1:      Off
Accessory Output Port 2:      Off
Accessory Output Port 3:      Off
Accessory Input Port:         On



238.25345	3884
238.27481	3715
238.29616	3735
238.31752	3750
238.33887	3737
238.36021	3738
238.38158	3762
238.40292	3747
238.42427	3742
238.44563	3787
238.46698	3754
238.48833	3718
238.50969	3695
238.53104	3726
238.55238	3708
238.57375	3737
238.59509	3751
238.61644	3784
238.63779	3785
238.65915	3777
238.6805	3779
238.70184	3788
238.72319	3778
238.74454	3758
238.7659	3806
238.78725	3817
238.80859	3843
238.82994	3840
238.85129	3802
238.87263	3833
238.89398	3858
238.91534	3839
238.93669	3876
238.95804	3819
238.97939	3860
239.00073	3866
239.02208	3864
239.04343	3862
239.06477	3871
239.08612	3893
239.10747	3895
239.12881	3854
239.15016	3841
239.17151	3849
239.19286	3835
239.2142	3877
239.23555	3882
239.2569	3888
239.27823	3901
239.29958	3900
239.32092	3921
239.34227	3906
239.36362	3914
239.38496	3894
239.40631	3915
239.42764	3920
239.44899	3920
239.47034	3955
239.49168	3985
239.51303	3951
239.53436	3931
239.55571	3932
239.57706	3950
239.5984	3965
239.61974	3936
239.64108	3923
239.66243	3949
239.68376	3938
239.70511	3910
239.72646	3927
239.74779	3898
239.76913	3912
239.79048	3928
239.81181	3940
239.83316	3957
239.85451	3940
239.87584	3940
239.89719	3958
239.91852	3961
239.93987	3940
239.9612	3932
239.98254	3970
240.00388	3956
240.02522	3955
240.04655	3960
240.0679	4000
240.08923	4002
240.11058	3982
240.13191	3979
240.15326	3999
240.17459	4010
240.19592	4002
240.21727	3994
240.2386	3980
240.25995	4021
240.28128	4000
240.30261	4035
240.32396	3979
240.34529	4032
240.36662	4038
240.38797	4064
240.4093	4087
240.43063	4048
240.45197	4080
240.47331	4085
240.49464	4085
240.51598	4087
240.53731	4121
240.55865	4102
240.57999	4121
240.60132	4089
240.62265	4089
240.64398	4104
240.66533	4135
240.68666	4135
240.70799	4129
240.72932	4117
240.75066	4114
240.77199	4134
240.79332	4119
240.81465	4150
240.83598	4161
240.85732	4153
240.87865	4156
240.89998	4148
240.92133	4115
240.94266	4134
240.96397	4099
240.98531	4140
241.00664	4133
241.02797	4143
241.0493	4146
241.07063	4163
241.09196	4176
241.1133	4152
241.13463	4166
241.15596	4135
241.17729	4145
241.19862	4141
241.21994	4150
241.24127	4130
241.2626	4129
241.28394	4163
241.30527	4174
241.3266	4151
241.34792	4165
241.36925	4204
241.39058	4176
241.41191	4192
241.43323	4212
241.45456	4252
241.47589	4273
241.49721	4259
241.51854	4254
241.53987	4283
241.5612	4276
241.58252	4263
241.60385	4281
241.62517	4287
241.6465	4317
241.66783	4276
241.68915	4297
241.71048	4306
241.7318	4310
241.75313	4304
241.77446	4318
241.79578	4365
241.81711	4396
241.83842	4386
241.85976	4387
241.88107	4379
241.9024	4374
241.92372	4437
241.94504	4427
241.96637	4445
241.98769	4470
242.00902	4468
242.03033	4467
242.05167	4500
242.07298	4477
242.0943	4468
242.11563	4492
242.13695	4503
242.15826	4497
242.1796	4491
242.20091	4485
242.22223	4514
242.24356	4510
242.26488	4520
242.28619	4487
242.30751	4523
242.32884	4512
242.35016	4505
242.37148	4485
242.39279	4460
242.41411	4502
242.43544	4531
242.45676	4595
242.47807	4606
242.49939	4590
242.52071	4594
242.54202	4602
242.56334	4588
242.58467	4628
242.60599	4582
242.6273	4623
242.64862	4634
242.66994	4603
242.69125	4610
242.71257	4616
242.73389	4642
242.7552	4618
242.77652	4652
242.79784	4613
242.81915	4636
242.84047	4616
242.86179	4648
242.8831	4635
242.90442	4733
242.92572	4711
242.94704	4760
242.96835	4715
242.98967	4739
243.01099	4731
243.0323	4678
243.05362	4671
243.07492	4709
243.09624	4721
243.11755	4738
243.13887	4722
243.16019	4694
243.18149	4680
243.2028	4699
243.22412	4741
243.24544	4763
243.26674	4771
243.28806	4768
243.30937	4772
243.33067	4772
243.35199	4768
243.37331	4781
243.39461	4823
243.41592	4828
243.43724	4829
243.45854	4849
243.47986	4806
243.50116	4838
243.52248	4833
243.54378	4865
243.56509	4848
243.58641	4842
243.60771	4837
243.62903	4840
243.65033	4840
243.67165	4825
243.69295	4836
243.71426	4868
243.73557	4813
243.75687	4779
243.77818	4776
243.79948	4767
243.8208	4811
243.8421	4844
243.8634	4827
243.88472	4863
243.90602	4918
243.92732	4907
243.94864	4938
243.96994	4914
243.99124	4925
244.01256	4896
244.03386	4887
244.05516	4870
244.07646	4883
244.09778	4895
244.11908	4884
244.14038	4873
244.16168	4887
244.183	4868
244.2043	4862
244.2256	4851
244.2469	4829
244.2682	4826
244.28951	4818
244.31082	4789
244.33212	4849
244.35342	4793
244.37473	4884
244.39603	4872
244.41733	4899
244.43863	4881
244.45993	4878
244.48123	4863
244.50253	4848
244.52383	4885
244.54514	4875
244.56644	4905
244.58774	4898
244.60904	4903
244.63034	4900
244.65164	4876
244.67294	4899
244.69424	4934
244.71555	4953
244.73683	4943
244.75813	4949
244.77943	4897
244.80074	4908
244.82204	4892
244.84334	4920
244.86462	4916
244.88593	4949
244.90723	4984
244.92853	4908
244.94983	4937
244.97112	4932
244.99242	4967
245.01372	4958
245.035	4991
245.0563	4999
245.07761	4947
245.09889	4981
245.12019	4958
245.14149	4968
245.16278	4999
245.18408	5015
245.20538	5022
245.22667	5045
245.24797	4984
245.26926	4991
245.29056	5031
245.31186	5061
245.33315	5040
245.35445	5099
245.37573	5092
245.39703	5100
245.41832	5137
245.43962	5141
245.46091	5143
245.48219	5155
245.50349	5170
245.52478	5106
245.54608	5133
245.56737	5137
245.58867	5161
245.60995	5194
245.63124	5208
245.65254	5234
245.67383	5158
245.69511	5232
245.71642	5159
245.7377	5190
245.75899	5211
245.78027	5230
245.80157	5240
245.82286	5252
245.84415	5254
245.86543	5280
245.88673	5290
245.90802	5319
245.92931	5315
245.95059	5381
245.97188	5369
245.99318	5358
246.01447	5369
246.03575	5318
246.05704	5330
246.07832	5366
246.09961	5360
246.1209	5386
246.14218	5410
246.16347	5472
246.18475	5465
246.20604	5444
246.22733	5374
246.24861	5484
246.2699	5433
246.29118	5465
246.31247	5491
246.33376	5507
246.35504	5529
246.37633	5495
246.39761	5491
246.4189	5483
246.44019	5535
246.46147	5500
246.48276	5595
246.50403	5532
246.52531	5555
246.5466	5552
246.56789	5574
246.58917	5550
246.61046	5564
246.63173	5581
246.65302	5579
246.6743	5590
246.69559	5605
246.71686	5610
246.73814	5636
246.75943	5592
246.7807	5669
246.80199	5636
246.82327	5690
246.84454	5723
246.86583	5703
246.88712	5765
246.90839	5707
246.92967	5705
246.95096	5700
246.97223	5667
246.99352	5692
247.01479	5697
247.03607	5671
247.05734	5719
247.07863	5782
247.0999	5762
247.12119	5767
247.14246	5788
247.16374	5776
247.18501	5789
247.2063	5824
247.22757	5870
247.24886	5946
247.27013	5991
247.2914	5960
247.31268	5969
247.33395	5991
247.35522	5967
247.37651	5953
247.39778	5979
247.41905	5998
247.44034	5988
247.46161	6003
247.48288	6026
247.50417	6008
247.52544	5975
247.54671	6021
247.56798	6022
247.58926	6080
247.61053	6113
247.63181	6038
247.65308	6069
247.67435	6071
247.69562	6068
247.7169	6108
247.73817	6128
247.75945	6185
247.78072	6228
247.80199	6188
247.82326	6185
247.84453	6184
247.8658	6169
247.88707	6133
247.90834	6151
247.92961	6157
247.95088	6141
247.97215	6115
247.99342	6118
248.01469	6153
248.03596	6104
248.05724	6125
248.07851	6099
248.09978	6095
248.12105	6075
248.14232	6066
248.16359	6073
248.18484	6059
248.20612	6055
248.22739	6122
248.24866	6138
248.26993	6145
248.2912	6150
248.31245	6172
248.33372	6115
248.355	6132
248.37627	6150
248.39752	6088
248.41879	6117
248.44006	6116
248.46132	6097
248.48259	6066
248.50386	6068
248.52512	6107
248.54639	6119
248.56766	6104
248.58891	6103
248.61018	6097
248.63145	6069
248.65271	6105
248.67398	6060
248.69524	6137
248.71651	6156
248.73776	6153
248.75903	6145
248.78029	6160
248.80156	6143
248.82281	6100
248.84409	6143
248.86534	6136
248.88661	6136
248.90787	6182
248.92912	6139
248.95039	6135
248.97165	6131
248.99292	6101
249.01418	6195
249.03543	6205
249.0567	6239
249.07796	6196
249.09921	6251
249.12048	6199
249.14174	6203
249.16299	6214
249.18425	6279
249.20552	6331
249.22678	6379
249.24803	6340
249.26929	6338
249.29056	6321
249.31181	6354
249.33307	6330
249.35432	6325
249.37558	6329
249.39684	6325
249.41809	6284
249.43936	6352
249.46062	6372
249.48187	6369
249.50313	6326
249.52438	6268
249.54564	6267
249.56689	6268
249.58815	6304
249.60941	6358
249.63066	6342
249.65192	6306
249.67317	6357
249.69443	6421
249.71568	6386
249.73694	6402
249.75819	6348
249.77945	6412
249.80069	6417
249.82195	6397
249.8432	6395
249.86446	6451
249.88571	6433
249.90697	6403
249.92821	6373
249.94946	6374
249.97072	6370
249.99197	6378
250.01323	6395
250.03447	6408
250.05573	6441
250.07698	6387
250.09822	6392
250.11948	6399
250.14073	6401
250.16197	6375
250.18323	6425
250.20448	6398
250.22572	6458
250.24698	6423
250.26823	6352
250.28947	6411
250.31073	6386
250.33197	6422
250.35323	6417
250.37447	6447
250.39572	6478
250.41696	6487
250.43822	6485
250.45946	6488
250.48071	6519
250.50195	6565
250.52321	6548
250.54445	6527
250.5657	6544
250.58694	6537
250.60818	6537
250.62944	6519
250.65068	6524
250.67194	6533
250.69318	6545
250.71442	6585
250.73567	6643
250.75691	6614
250.77815	6615
250.79939	6675
250.82065	6680
250.84189	6679
250.86313	6674
250.88437	6670
250.90562	6748
250.92686	6739
250.9481	6701
250.96935	6705
250.99059	6706
251.01183	6705
251.03308	6727
251.05432	6818
251.07556	6795
251.0968	6775
251.11804	6784
251.13928	6724
251.16052	6719
251.18176	6767
251.203	6779
251.22424	6843
251.24548	6818
251.26672	6816
251.28796	6832
251.3092	6802
251.33044	6865
251.35168	6853
251.37292	6850
251.39417	6900
251.41541	6909
251.43665	6912
251.45787	6871
251.47911	6803
251.50035	6767
251.52159	6811
251.54283	6843
251.56407	6801
251.5853	6836
251.60654	6889
251.62778	6894
251.64902	6898
251.67024	6933
251.69148	6927
251.71272	6980
251.73395	7000
251.75519	7012
251.77643	7002
251.79767	7005
251.81889	6974
251.84013	7009
251.86136	6970
251.8826	6980
251.90384	7028
251.92506	7113
251.9463	7166
251.96753	7143
251.98877	7112
252.00999	7113
252.03123	7180
252.05246	7228
252.0737	7256
252.09492	7296
252.11617	7340
252.13739	7351
252.15863	7346
252.17986	7298
252.20108	7269
252.22232	7320
252.24355	7346
252.26479	7372
252.28601	7373
252.30724	7345
252.32848	7314
252.3497	7341
252.37093	7369
252.39217	7367
252.41339	7339
252.43462	7360
252.45584	7305
252.47708	7329
252.49831	7295
252.51953	7307
252.54076	7358
252.56198	7419
252.58321	7418
252.60445	7501
252.62567	7453
252.6469	7465
252.66812	7470
252.68935	7482
252.71057	7464
252.7318	7462
252.75302	7488
252.77425	7463
252.79547	7398
252.8167	7411
252.83792	7446
252.85915	7425
252.88037	7411
252.9016	7459
252.92282	7441
252.94405	7427
252.96527	7403
252.9865	7507
253.00772	7543
253.02895	7572
253.05017	7621
253.0714	7608
253.09261	7585
253.11383	7589
253.13506	7577
253.15628	7513
253.17751	7556
253.19872	7582
253.21994	7600
253.24117	7574
253.26239	7617
253.2836	7561
253.30482	7579
253.32605	7637
253.34726	7699
253.36848	7721
253.38971	7723
253.41092	7700
253.43214	7654
253.45337	7645
253.47458	7686
253.4958	7751
253.51701	7829
253.53824	7896
253.55946	7875
253.58067	7846
253.6019	7856
253.62311	7877
253.64433	7856
253.66554	7878
253.68677	7925
253.70798	7909
253.72919	7862
253.75041	7887
253.77162	7907
253.79285	7890
253.81406	7859
253.83527	7800
253.85649	7768
253.8777	7874
253.89893	7862
253.92014	7887
253.94135	7875
253.96255	7873
253.98378	7901
254.00499	7960
254.0262	8002
254.04741	7990
254.06863	8030
254.08984	8049
254.11105	8070
254.13226	8042
254.15347	7995
254.1747	8056
254.19591	8041
254.21712	8073
254.23833	8007
254.25954	7974
254.28075	8024
254.30196	8039
254.32317	8024
254.34438	8049
254.36559	8097
254.3868	8035
254.408	8099
254.42921	8079
254.45042	8097
254.47163	8116
254.49284	8166
254.51405	8155
254.53526	8196
254.55647	8178
254.57768	8107
254.59889	8155
254.6201	8189
254.64131	8188
254.66251	8187
254.68372	8241
254.70493	8211
254.72614	8216
254.74734	8211
254.76854	8220
254.78975	8319
254.81096	8320
254.83217	8329
254.85336	8329
254.87457	8344
254.89578	8259
254.91698	8280
254.93819	8389
254.9594	8449
254.98059	8519
255.0018	8536
255.02301	8517
255.0442	8530
255.06541	8562
255.08661	8573
255.10782	8565
255.12901	8561
255.15022	8542
255.17143	8544
255.19263	8549
255.21384	8593
255.23503	8628
255.25623	8555
255.27744	8542
255.29863	8541
255.31984	8504
255.34103	8553
255.36224	8653
255.38344	8679
255.40463	8679
255.42584	8660
255.44704	8655
255.46823	8774
255.48944	8777
255.51064	8744
255.53183	8809
255.55302	8770
255.57423	8743
255.59543	8764
255.61662	8785
255.63782	8812
255.65903	8805
255.68022	8766
255.70142	8731
255.72261	8802
255.7438	8815
255.765	8875
255.78619	8877
255.8074	8879
255.8286	8846
255.84979	8806
255.87099	8757
255.89218	8741
255.91338	8725
255.93457	8763
255.95576	8840
255.97696	8895
255.99815	8916
256.01935	8891
256.04053	8824
256.06174	8840
256.08292	8874
256.10413	8949
256.12531	8968
256.14651	9028
256.16769	9037
256.1889	8993
256.21008	9025
256.23126	9103
256.25247	9139
256.27365	9213
256.29486	9140
256.31604	9203
256.33722	9253
256.35843	9179
256.37961	9141
256.40079	9076
256.422	9134
256.44318	9156
256.46436	9179
256.48557	9195
256.50674	9242
256.52792	9221
256.54913	9278
256.57031	9294
256.59149	9335
256.6127	9299
256.63388	9337
256.65506	9355
256.67624	9422
256.69745	9384
256.71863	9379
256.73981	9405
256.76099	9438
256.7822	9442
256.80338	9476
256.82455	9512
256.84573	9532
256.86691	9520
256.88812	9513
256.9093	9519
256.93048	9519
256.95166	9592
256.97284	9634
256.99405	9640
257.01523	9630
257.03641	9630
257.05759	9595
257.07877	9660
257.09995	9727
257.12112	9682
257.1423	9753
257.16351	9817
257.18469	9853
257.20587	9821
257.22705	9743
257.24823	9610
257.26941	9640
257.29059	9650
257.31177	9684
257.33295	9718
257.35413	9803
257.37531	9731
257.39648	9743
257.41766	9800
257.43884	9812
257.46002	9798
257.4812	9874
257.50238	9862
257.52356	9917
257.54474	9928
257.56592	9882
257.5871	9875
257.60828	9896
257.62946	9814
257.65063	9836
257.67181	10019
257.69299	10102
257.71417	10156
257.73535	10067
257.75653	10040
257.77771	10074
257.79889	10133
257.82004	10201
257.84122	10200
257.8624	10314
257.88358	10297
257.90475	10285
257.92593	10337
257.94711	10344
257.96826	10416
257.98944	10369
258.01062	10397
258.0318	10468
258.05298	10419
258.07416	10403
258.09531	10446
258.11649	10428
258.13766	10429
258.15884	10407
258.17999	10418
258.20117	10379
258.22235	10375
258.24353	10358
258.26468	10287
258.28586	10374
258.30704	10468
258.32822	10519
258.34937	10578
258.37054	10621
258.39172	10630
258.41287	10637
258.43405	10593
258.45523	10555
258.47638	10544
258.49756	10584
258.51874	10650
258.53989	10606
258.56107	10601
258.58224	10583
258.60339	10615
258.62457	10689
258.64575	10691
258.6669	10698
258.68808	10670
258.70923	10664
258.73041	10693
258.75156	10785
258.77274	10922
258.79391	11032
258.81506	11030
258.83624	11084
258.85739	11039
258.87857	10933
258.89972	10888
258.9209	10943
258.94205	10967
258.96323	10951
258.98438	11008
259.00555	11002
259.0267	10992
259.04788	10959
259.06903	10887
259.09021	11004
259.11136	11094
259.13254	11048
259.15369	11113
259.17484	11068
259.19601	10994
259.21716	10990
259.23834	11016
259.25949	11136
259.28067	11259
259.30182	11367
259.32297	11482
259.34415	11438
259.3653	11467
259.38644	11613
259.40762	11590
259.42877	11663
259.44992	11641
259.4711	11644
259.49225	11669
259.5134	11613
259.53458	11624
259.55573	11585
259.57687	11580
259.59805	11540
259.6192	11650
259.64035	11760
259.6615	11853
259.68268	11811
259.70383	11807
259.72498	11733
259.74612	11800
259.7673	11984
259.78845	12071
259.8096	12034
259.83075	12032
259.85193	12095
259.87308	12202
259.89423	12184
259.91537	12082
259.93652	12078
259.95767	12156
259.97885	12165
260	12109
260.02115	12169
260.0423	12229
260.06345	12378
260.08459	12436
260.10574	12505
260.12692	12584
260.14807	12516
260.16922	12498
260.19037	12544
260.21152	12524
260.23267	12616
260.25381	12588
260.27496	12705
260.29611	12703
260.31726	12704
260.33841	12620
260.35956	12691
260.38071	12713
260.40186	12702
260.423	12729
260.44415	12816
260.4653	12859
260.48645	12844
260.5076	12868
260.52875	12906
260.5499	12932
260.57104	12968
260.59219	12948
260.61334	12957
260.63449	12941
260.65564	12907
260.67679	12955
260.69794	12934
260.71909	13058
260.74023	13013
260.76138	13091
260.7825	13158
260.80365	13096
260.8248	13088
260.84595	13143
260.8671	13151
260.88824	13253
260.90939	13243
260.93051	13261
260.95166	13251
260.97281	13279
260.99396	13238
261.01511	13173
261.03622	13095
261.05737	13165
261.07852	13266
261.09967	13383
261.12082	13412
261.14194	13350
261.16309	13325
261.18423	13393
261.20538	13360
261.2265	13449
261.24765	13395
261.2688	13434
261.28992	13437
261.31107	13360
261.33221	13375
261.35336	13368
261.37448	13465
261.39563	13496
261.41678	13386
261.4379	13381
261.45905	13457
261.48019	13576
261.50131	13553
261.52246	13505
261.54358	13439
261.56473	13386
261.58588	13363
261.60699	13204
261.62814	13067
261.64926	13100
261.67041	13062
261.69156	13106
261.71268	13130
261.73383	13167
261.75494	13193
261.77609	13126
261.79721	13209
261.81836	13237
261.83948	13198
261.86063	13220
261.88174	13304
261.90289	13375
261.92401	13415
261.94516	13344
261.96628	13407
261.98743	13483
262.00854	13595
262.02969	13644
262.05081	13568
262.07196	13569
262.09308	13571
262.11423	13451
262.13535	13401
262.15646	13504
262.17761	13474
262.19873	13427
262.21988	13574
262.241	13639
262.26212	13778
262.28326	13720
262.30438	13670
262.3255	13625
262.34665	13783
262.36777	13846
262.38889	13953
262.41003	14046
262.43115	14039
262.45227	14015
262.47342	14039
262.49454	14012
262.51566	13962
262.53677	13910
262.55792	13971
262.57904	13978
262.60016	14001
262.62131	13962
262.64243	14009
262.66354	13977
262.68466	14071
262.70578	14081
262.72693	14130
262.74805	14210
262.76917	14161
262.79028	14056
262.8114	14156
262.83255	14087
262.85367	14154
262.87479	14227
262.8959	14258
262.91702	14371
262.93814	14408
262.95926	14384
262.98041	14303
263.00153	14222
