Date and Time:                Tue Jan 31 14:52:58.000 2023
Software Version:             4.31.30023.0
Temperature (C):              -40
Model:                        DU940P_BU2
Data Type:                    Counts
Acquisition Mode:             Single Scan
Trigger Mode:                 Internal
Exposure Time (secs):         1
Readout Mode:                 Full Vertical Binning
Horizontal binning:           1
Extended Dynamic Range:       off
Horizontally flipped:         false
Vertical Shift Speed (usecs): 14.51
Pixel Readout Rate (MHz):     3
Baseline Clamp:               ON
Clock Amplitude:              Normal
Output Amplifier:             High Capacity
Serial Number:                23634
Pre-Amplifier Gain:           1.000000
Spurious Noise Filter Mode:   No Filter
Photon counted:               false
Data Averaging Filter Mode:   No Filter
SR500i:
Serial Number:                
Wavelength (nm):              254
Grating Groove Density (l/mm):1199.47
Grating Blaze:                500
Output Flipper Port:          Direct
Accessory Output Port 1:      Off
Accessory Output Port 2:      Off
Accessory Output Port 3:      Off
Accessory Input Port:         On



232.22389	4983
232.24527	4797
232.26665	4790
232.28802	4759
232.3094	4783
232.3308	4841
232.35217	4821
232.37355	4793
232.39493	4749
232.41631	4781
232.4377	4760
232.45908	4697
232.48045	4692
232.50183	4677
232.52321	4719
232.54459	4740
232.56596	4712
232.58734	4750
232.60872	4770
232.63011	4737
232.65149	4698
232.67287	4725
232.69424	4727
232.71562	4743
232.737	4764
232.75838	4748
232.77975	4719
232.80113	4777
232.82251	4741
232.84387	4755
232.86525	4757
232.88663	4798
232.908	4773
232.92938	4768
232.95076	4772
232.97214	4778
232.99352	4808
233.01489	4799
233.03625	4850
233.05763	4830
233.07901	4796
233.10039	4769
233.12177	4779
233.14314	4738
233.16451	4755
233.18588	4815
233.20726	4779
233.22864	4775
233.25	4799
233.27138	4792
233.29276	4818
233.31412	4786
233.33549	4791
233.35687	4836
233.37823	4821
233.39961	4821
233.42099	4828
233.44235	4838
233.46373	4858
233.48511	4870
233.50647	4830
233.52785	4887
233.54921	4867
233.57059	4923
233.59195	4839
233.61333	4858
233.6347	4864
233.65607	4827
233.67744	4804
233.69881	4781
233.72018	4792
233.74155	4796
233.76291	4816
233.78429	4825
233.80565	4791
233.82703	4765
233.84839	4799
233.86977	4792
233.89113	4796
233.91249	4780
233.93387	4794
233.95523	4813
233.97659	4863
233.99797	4832
234.01933	4857
234.0407	4941
234.06207	4884
234.08344	4838
234.1048	4834
234.12617	4851
234.14754	4881
234.1689	4844
234.19026	4838
234.21164	4836
234.233	4860
234.25436	4891
234.27573	4863
234.29709	4855
234.31845	4903
234.33983	4928
234.36119	4933
234.38255	4937
234.40392	4888
234.42528	4907
234.44664	4922
234.468	4959
234.48936	4950
234.51073	4961
234.53209	4972
234.55345	4952
234.57483	4953
234.59619	4948
234.61755	4931
234.63892	4953
234.66028	4963
234.68163	4990
234.70299	4961
234.72435	4943
234.74571	4965
234.76707	4959
234.78844	4956
234.8098	4983
234.83116	4981
234.85252	4963
234.87389	4968
234.89525	4967
234.9166	4923
234.93796	4960
234.95932	4962
234.98068	4970
235.00204	4961
235.02339	4983
235.04475	4953
235.06612	5002
235.08748	4951
235.10883	4944
235.13019	4921
235.15155	4974
235.17291	4941
235.19426	4957
235.21562	4939
235.23698	4924
235.25833	4921
235.27969	4945
235.30106	4922
235.3224	4962
235.34377	4950
235.36511	4985
235.38647	4965
235.40784	4994
235.42918	5024
235.45055	4999
235.47189	5017
235.49326	5066
235.5146	5060
235.53596	5028
235.55731	5024
235.57867	5037
235.60002	5043
235.62138	5058
235.64273	5057
235.66409	5074
235.68544	5054
235.70679	5067
235.72815	5047
235.7495	5090
235.77086	5140
235.79221	5150
235.81355	5152
235.83492	5169
235.85626	5133
235.87761	5120
235.89897	5195
235.92032	5187
235.94167	5203
235.96301	5256
235.98438	5281
236.00572	5298
236.02707	5313
236.04842	5281
236.06978	5251
236.09113	5293
236.11247	5298
236.13382	5267
236.15517	5253
236.17653	5263
236.19788	5292
236.21922	5261
236.24057	5267
236.26192	5227
236.28326	5231
236.30461	5251
236.32596	5246
236.34731	5297
236.36865	5257
236.39001	5247
236.41136	5324
236.43271	5330
236.45406	5348
236.4754	5333
236.49675	5386
236.5181	5374
236.53943	5395
236.56078	5394
236.58212	5387
236.60347	5352
236.62482	5383
236.64616	5388
236.66751	5325
236.68886	5390
236.71021	5422
236.73155	5391
236.75288	5419
236.77423	5412
236.79558	5406
236.81693	5388
236.83827	5368
236.8596	5414
236.88095	5410
236.9023	5453
236.92365	5462
236.94498	5500
236.96632	5462
236.98767	5463
237.00902	5416
237.03035	5432
237.0517	5436
237.07304	5393
237.09438	5468
237.11572	5456
237.13707	5468
237.1584	5452
237.17975	5495
237.20108	5491
237.22243	5526
237.24376	5580
237.26511	5627
237.28645	5549
237.30779	5558
237.32913	5592
237.35046	5565
237.37181	5633
237.39314	5652
237.41449	5644
237.43582	5641
237.45717	5645
237.4785	5636
237.49983	5658
237.52118	5693
237.54251	5708
237.56386	5703
237.58519	5681
237.60652	5640
237.62787	5708
237.6492	5714
237.67053	5712
237.69188	5696
237.71321	5643
237.73454	5628
237.75589	5677
237.77722	5684
237.79855	5732
237.81989	5738
237.84123	5713
237.86256	5735
237.8839	5772
237.90523	5783
237.92656	5769
237.94791	5753
237.96924	5776
237.99057	5783
238.0119	5760
238.03323	5795
238.05457	5763
238.0759	5757
238.09723	5751
238.11858	5770
238.13991	5759
238.16124	5798
238.18257	5809
238.2039	5728
238.22523	5730
238.24657	5742
238.2679	5762
238.28923	5725
238.31056	5729
238.33189	5750
238.35323	5772
238.37456	5774
238.39587	5775
238.41721	5822
238.43854	5767
238.45987	5812
238.4812	5778
238.50253	5781
238.52386	5797
238.5452	5855
238.56651	5824
238.58784	5827
238.60918	5816
238.63051	5816
238.65184	5822
238.67316	5865
238.69449	5933
238.71582	5925
238.73715	5908
238.75847	5914
238.7798	5922
238.80113	5918
238.82245	5881
238.84378	5944
238.86511	5940
238.88643	5936
238.90776	5901
238.92909	5941
238.95041	5935
238.97174	6019
238.99306	6005
239.01439	6007
239.03572	5984
239.05704	6000
239.07837	6021
239.09969	6027
239.12102	6018
239.14233	6022
239.16367	6068
239.18498	6051
239.20631	6054
239.22763	6026
239.24896	6043
239.27028	6037
239.2916	6077
239.31293	6069
239.33424	6109
239.35558	6179
239.37689	6166
239.39821	6171
239.41954	6222
239.44086	6194
239.46217	6247
239.48351	6204
239.50482	6194
239.52614	6197
239.54745	6206
239.56879	6200
239.5901	6277
239.61142	6257
239.63274	6245
239.65407	6238
239.67538	6238
239.6967	6226
239.71802	6216
239.73933	6251
239.76065	6324
239.78198	6333
239.8033	6405
239.82462	6352
239.84593	6374
239.86725	6397
239.88857	6412
239.90988	6414
239.9312	6422
239.95251	6450
239.97383	6469
239.99515	6439
240.01646	6412
240.03778	6404
240.0591	6421
240.08041	6424
240.10173	6506
240.12305	6559
240.14436	6560
240.16568	6559
240.187	6485
240.20831	6515
240.22963	6532
240.25095	6524
240.27225	6555
240.29356	6584
240.31488	6605
240.3362	6633
240.35751	6585
240.37881	6606
240.40013	6656
240.42145	6638
240.44276	6692
240.46408	6668
240.48538	6688
240.5067	6645
240.52802	6602
240.54932	6638
240.57063	6644
240.59195	6644
240.61325	6665
240.63457	6673
240.65588	6678
240.67719	6695
240.6985	6665
240.7198	6659
240.74112	6699
240.76244	6717
240.78374	6755
240.80505	6815
240.82635	6825
240.84767	6790
240.86897	6863
240.89029	6819
240.91159	6750
240.93291	6727
240.95421	6760
240.97552	6801
240.99683	6750
241.01814	6719
241.03944	6765
241.06075	6787
241.08206	6794
241.10336	6859
241.12466	6813
241.14598	6810
241.16728	6826
241.18858	6819
241.2099	6864
241.2312	6922
241.2525	6983
241.27382	6951
241.29512	6932
241.31642	6993
241.33772	7002
241.35904	6952
241.38034	6940
241.40164	6988
241.42294	6978
241.44424	6979
241.46556	7010
241.48686	6977
241.50816	7027
241.52946	7029
241.55077	7066
241.57207	7123
241.59337	7147
241.61467	7195
241.63597	7149
241.65727	7193
241.67857	7142
241.69987	7205
241.72119	7254
241.74249	7328
241.76378	7341
241.78508	7370
241.80638	7384
241.82768	7394
241.84898	7339
241.87029	7409
241.89159	7352
241.91289	7414
241.93419	7386
241.95549	7408
241.97679	7316
241.99809	7377
242.01938	7387
242.04068	7398
242.06198	7404
242.08328	7412
242.10458	7368
242.12587	7420
242.14717	7437
242.16847	7453
242.18977	7383
242.21106	7481
242.23236	7553
242.25366	7602
242.27495	7600
242.29625	7610
242.31755	7618
242.33884	7588
242.36014	7573
242.38144	7584
242.40273	7571
242.42403	7626
242.44531	7555
242.46661	7558
242.48792	7607
242.5092	7626
242.5305	7625
242.55179	7664
242.57309	7643
242.59438	7661
242.61568	7612
242.63696	7598
242.65826	7576
242.67955	7623
242.70084	7642
242.72214	7674
242.74342	7727
242.76472	7788
242.78601	7710
242.8073	7698
242.8286	7713
242.84988	7735
242.87117	7747
242.89247	7786
242.91376	7789
242.93504	7791
242.95634	7769
242.97763	7790
242.99892	7808
243.0202	7877
243.0415	7950
243.06279	7870
243.08408	7920
243.10536	7921
243.12665	7888
243.14795	7886
243.16924	7965
243.19052	7989
243.21181	8012
243.23309	8017
243.25438	8030
243.27567	8106
243.29695	8107
243.31825	8065
243.33954	8090
243.36082	8044
243.38211	8057
243.4034	8031
243.42468	8081
243.44597	8150
243.46725	8134
243.48854	8079
243.50983	8026
243.5311	8049
243.55238	8078
243.57367	8037
243.59496	8119
243.61624	8149
243.63753	8155
243.65881	8106
243.6801	8120
243.70139	8130
243.72266	8116
243.74394	8127
243.76523	8182
243.78651	8181
243.8078	8121
243.82907	8135
243.85036	8167
243.87164	8181
243.89291	8157
243.9142	8168
243.93549	8142
243.95677	8203
243.97804	8210
243.99933	8216
244.02061	8193
244.04189	8150
244.06317	8139
244.08444	8110
244.10573	8070
244.12701	8097
244.14828	8061
244.16957	8063
244.19084	8136
244.21213	8168
244.2334	8123
244.25468	8139
244.27596	8074
244.29724	8062
244.31851	8094
244.3398	8173
244.36107	8220
244.38235	8293
244.40363	8221
244.4249	8213
244.44618	8254
244.46745	8248
244.48872	8305
244.51001	8318
244.53128	8358
244.55255	8422
244.57384	8342
244.59511	8329
244.61638	8267
244.63766	8255
244.65894	8306
244.68021	8315
244.70148	8366
244.72276	8519
244.74403	8452
244.7653	8486
244.78658	8439
244.80785	8426
244.82912	8527
244.8504	8501
244.87167	8586
244.89294	8588
244.91422	8626
244.93549	8563
244.95676	8537
244.97803	8510
244.9993	8533
245.02057	8544
245.04184	8590
245.06311	8587
245.08438	8544
245.10565	8564
245.12692	8592
245.14819	8550
245.16946	8585
245.19073	8581
245.21201	8678
245.23328	8698
245.25455	8681
245.27582	8696
245.29709	8693
245.31834	8756
245.33961	8762
245.36089	8775
245.38216	8791
245.40343	8814
245.4247	8805
245.44595	8796
245.46722	8766
245.48849	8693
245.50977	8725
245.53102	8711
245.55229	8787
245.57356	8808
245.59482	8823
245.61609	8873
245.63736	8917
245.65862	8900
245.67989	8910
245.70116	8955
245.72241	8983
245.74368	8976
245.76494	9043
245.78621	8984
245.80748	8973
245.82874	9036
245.85001	9051
245.87126	9029
245.89253	9086
245.91379	9171
245.93506	9228
245.95631	9163
245.97757	9166
245.99884	9172
246.0201	9266
246.04137	9301
246.06262	9395
246.08389	9384
246.10515	9428
246.1264	9510
246.14767	9487
246.16893	9455
246.19019	9495
246.21146	9459
246.23271	9483
246.25397	9480
246.27522	9536
246.29649	9490
246.31775	9474
246.339	9484
246.36026	9522
246.38153	9463
246.40279	9443
246.42404	9434
246.4453	9449
246.46655	9411
246.48781	9513
246.50906	9457
246.53033	9546
246.55159	9609
246.57285	9701
246.5941	9659
246.61536	9648
246.63661	9745
246.65787	9731
246.67912	9757
246.70038	9746
246.72163	9792
246.74289	9836
246.76414	9820
246.7854	9750
246.80666	9713
246.82791	9723
246.84917	9780
246.87042	9823
246.89166	9812
246.91292	9817
246.93417	9812
246.95543	9824
246.97668	9857
246.99794	9910
247.01918	10007
247.04044	10038
247.06169	10031
247.08295	10063
247.1042	10081
247.12544	10091
247.1467	10051
247.16795	10082
247.18919	10086
247.21045	10188
247.2317	10148
247.25294	10211
247.2742	10188
247.29546	10205
247.3167	10228
247.33795	10344
247.35919	10415
247.38045	10443
247.4017	10407
247.42294	10424
247.4442	10424
247.46544	10451
247.48669	10453
247.50793	10605
247.52919	10647
247.55043	10699
247.57169	10607
247.59293	10680
247.61418	10669
247.63542	10693
247.65666	10663
247.67792	10725
247.69916	10682
247.72041	10682
247.74165	10673
247.76289	10638
247.78415	10634
247.80539	10560
247.82663	10482
247.84787	10444
247.86913	10493
247.89037	10593
247.91161	10584
247.93285	10582
247.9541	10552
247.97534	10534
247.99658	10631
248.01782	10688
248.03906	10648
248.06032	10615
248.08156	10645
248.1028	10621
248.12404	10626
248.14528	10548
248.16652	10637
248.18776	10599
248.209	10575
248.23024	10470
248.25148	10508
248.27272	10561
248.29396	10533
248.3152	10528
248.33644	10490
248.35768	10552
248.37892	10531
248.40016	10406
248.4214	10413
248.44264	10433
248.46388	10458
248.48512	10416
248.50636	10498
248.52759	10550
248.54883	10513
248.57007	10435
248.59131	10370
248.61255	10419
248.63379	10431
248.65501	10436
248.67625	10502
248.69749	10547
248.71873	10514
248.73996	10518
248.7612	10520
248.78244	10606
248.80367	10620
248.82491	10606
248.84615	10596
248.86737	10582
248.88861	10492
248.90985	10532
248.93108	10608
248.95232	10605
248.97354	10738
248.99478	10700
249.01601	10621
249.03725	10708
249.05847	10813
249.07971	10819
249.10094	10755
249.12218	10768
249.1434	10751
249.16464	10764
249.18587	10754
249.20711	10838
249.22833	10848
249.24956	10808
249.2708	10789
249.29202	10712
249.31326	10670
249.33449	10686
249.35571	10739
249.37695	10823
249.39818	10825
249.4194	10811
249.44063	10818
249.46187	10930
249.48309	10948
249.50432	10891
249.52554	10926
249.54678	10916
249.56801	10909
249.58923	10878
249.61046	10886
249.63168	10921
249.65291	10989
249.67413	10937
249.69537	10893
249.7166	10975
249.73782	11056
249.75905	11038
249.78027	11081
249.8015	11017
249.82272	11037
249.84395	10959
249.86517	10900
249.8864	10859
249.90762	10866
249.92885	10780
249.95007	10827
249.9713	10856
249.99252	10923
250.01375	10836
250.03496	10817
250.05618	10803
250.07741	10738
250.09863	10802
250.11986	10930
250.14108	10907
250.16231	11014
250.18352	10979
250.20474	10931
250.22597	11011
250.24719	11090
250.2684	11037
250.28963	11121
250.31085	11090
250.33206	11150
250.35329	11077
250.37451	10996
250.39572	11026
250.41695	10967
250.43817	11011
250.45938	11092
250.48061	11185
250.50183	11273
250.52304	11321
250.54427	11287
250.56548	11301
250.5867	11341
250.60791	11477
250.62914	11508
250.65034	11571
250.67157	11619
250.69278	11597
250.714	11548
250.73521	11536
250.75644	11533
250.77765	11566
250.79886	11536
250.82008	11582
250.84129	11619
250.8625	11538
250.88373	11583
250.90494	11559
250.92615	11584
250.94737	11601
250.96858	11628
250.98979	11672
251.01102	11656
251.03223	11587
251.05344	11587
251.07465	11581
251.09586	11612
251.11708	11661
251.13829	11771
251.1595	11800
251.18071	11851
251.20192	11832
251.22313	11744
251.24434	11617
251.26556	11630
251.28677	11601
251.30798	11666
251.32919	11770
251.3504	11754
251.37161	11753
251.39282	11711
251.41403	11772
251.43524	11758
251.45645	11765
251.47766	11738
251.49887	11776
251.52008	11794
251.54128	11847
251.56248	11777
251.58369	11742
251.6049	11764
251.62611	11790
251.64732	11745
251.66853	11930
251.68973	11993
251.71094	12051
251.73215	12039
251.75336	11951
251.77457	11944
251.79576	12001
251.81697	12069
251.83818	12138
251.85938	12263
251.88058	12322
251.90179	12273
251.92299	12309
251.9442	12372
251.96541	12394
251.9866	12399
252.00781	12413
252.02901	12478
252.05022	12439
252.07143	12381
252.09262	12482
252.11383	12460
252.13503	12476
252.15623	12457
252.17743	12390
252.19864	12387
252.21983	12389
252.24104	12450
252.26224	12499
252.28343	12565
252.30464	12555
252.32584	12658
252.34705	12724
252.36824	12683
252.38943	12721
252.41064	12786
252.43184	12777
252.45303	12776
252.47424	12742
252.49544	12776
252.51663	12816
252.53783	12763
252.55904	12672
252.58023	12673
252.60143	12717
252.62262	12773
252.64381	12725
252.66502	12699
252.68622	12684
252.70741	12650
252.72861	12631
252.7498	12698
252.771	12806
252.79219	12905
252.81339	12922
252.83458	12812
252.85577	12857
252.87698	12842
252.89818	12861
252.91937	12870
252.94057	12915
252.96175	12976
252.98294	12996
253.00414	13067
253.02533	13086
253.04652	13025
253.06772	13042
253.08891	13133
253.11011	13212
253.1313	13268
253.1525	13353
253.17368	13312
253.19487	13258
253.21606	13208
253.23726	13159
253.25845	13244
253.27963	13309
253.30083	13511
253.32202	13491
253.34322	13443
253.3644	13585
253.38559	13507
253.40678	13442
253.42796	13460
253.44916	13452
253.47035	13444
253.49153	13411
253.51273	13375
253.53391	13368
253.5551	13369
253.57628	13371
253.59747	13304
253.61867	13363
253.63985	13494
253.66104	13543
253.68222	13582
253.7034	13523
253.72459	13503
253.74577	13571
253.76697	13697
253.78815	13768
253.80934	13789
253.83052	13756
253.8517	13880
253.87289	13942
253.89407	13925
253.91525	13808
253.93645	13746
253.95763	13832
253.97881	13817
254	13822
254.02118	13899
254.04236	13933
254.06354	14011
254.08473	14131
254.10591	14206
254.12709	14189
254.14827	14167
254.16945	14143
254.19063	14055
254.21182	14109
254.233	14106
254.25418	14224
254.27536	14314
254.29654	14341
254.31772	14260
254.3389	14215
254.36008	14161
254.38126	14159
254.40244	14259
254.42361	14315
254.44479	14471
254.46597	14471
254.48715	14500
254.50833	14477
254.52951	14566
254.55069	14558
254.57187	14599
254.59303	14661
254.61421	14644
254.63539	14641
254.65657	14669
254.67775	14637
254.69893	14593
254.72009	14586
254.74127	14636
254.76245	14657
254.78363	14742
254.80479	14773
254.82597	14844
254.84715	14827
254.86833	14870
254.8895	14985
254.91068	14960
254.93185	14984
254.95302	15031
254.9742	15087
254.99536	15039
255.01654	14950
255.03772	15039
255.05888	15016
255.08006	15007
255.10123	15134
255.12241	15207
255.14357	15244
255.16475	15233
255.18591	15144
255.20709	15206
255.22826	15223
255.24942	15262
255.2706	15253
255.29176	15338
255.31294	15285
255.33411	15253
255.35527	15215
255.37645	15232
255.39761	15387
255.41878	15367
255.43996	15349
255.46112	15435
255.48228	15520
255.50345	15510
255.52463	15477
255.54579	15408
255.56696	15357
255.58812	15294
255.60928	15123
255.63046	15022
255.65163	15072
255.67279	14963
255.69395	15029
255.71512	15027
255.73628	15152
255.75745	15143
255.77861	15136
255.79977	15183
255.82094	15205
255.8421	15154
255.86327	15219
255.88443	15333
255.90559	15503
255.92676	15532
255.94792	15514
255.96909	15573
255.99025	15628
256.01141	15836
256.03256	15742
256.05374	15799
256.07489	15835
256.09607	15813
256.11722	15669
256.1384	15710
256.15955	15694
256.18069	15662
256.20187	15672
256.22302	15850
256.2442	16019
256.26535	16094
256.2865	15975
256.30768	15899
256.32883	15981
256.34998	16136
256.37115	16241
256.3923	16339
256.41345	16501
256.43463	16478
256.45578	16521
256.47693	16462
256.49808	16487
256.51926	16377
256.54041	16365
256.56155	16433
256.5827	16461
256.60388	16529
256.62503	16505
256.64618	16551
256.66733	16516
256.68851	16615
256.70966	16575
256.7308	16560
256.75195	16492
