Date and Time:                Tue Jan 31 14:53:05.000 2023
Software Version:             4.31.30023.0
Temperature (C):              -40
Model:                        DU940P_BU2
Data Type:                    Counts
Acquisition Mode:             Single Scan
Trigger Mode:                 Internal
Exposure Time (secs):         1
Readout Mode:                 Full Vertical Binning
Horizontal binning:           1
Extended Dynamic Range:       off
Horizontally flipped:         false
Vertical Shift Speed (usecs): 14.51
Pixel Readout Rate (MHz):     3
Baseline Clamp:               ON
Clock Amplitude:              Normal
Output Amplifier:             High Capacity
Serial Number:                23634
Pre-Amplifier Gain:           1.000000
Spurious Noise Filter Mode:   No Filter
Photon counted:               false
Data Averaging Filter Mode:   No Filter
SR500i:
Serial Number:                
Wavelength (nm):              254
Grating Groove Density (l/mm):1199.47
Grating Blaze:                500
Output Flipper Port:          Direct
Accessory Output Port 1:      Off
Accessory Output Port 2:      Off
Accessory Output Port 3:      Off
Accessory Input Port:         On



232.22389	5015
232.24527	4795
232.26665	4757
232.28802	4762
232.3094	4772
232.3308	4826
232.35217	4807
232.37355	4801
232.39493	4784
232.41631	4742
232.4377	4765
232.45908	4717
232.48045	4702
232.50183	4677
232.52321	4710
232.54459	4742
232.56596	4695
232.58734	4709
232.60872	4721
232.63011	4729
232.65149	4692
232.67287	4723
232.69424	4755
232.71562	4715
232.737	4728
232.75838	4735
232.77975	4746
232.80113	4748
232.82251	4758
232.84387	4769
232.86525	4769
232.88663	4794
232.908	4809
232.92938	4752
232.95076	4814
232.97214	4729
232.99352	4789
233.01489	4790
233.03625	4816
233.05763	4830
233.07901	4819
233.10039	4770
233.12177	4756
233.14314	4756
233.16451	4762
233.18588	4774
233.20726	4810
233.22864	4810
233.25	4777
233.27138	4782
233.29276	4783
233.31412	4782
233.33549	4818
233.35687	4810
233.37823	4835
233.39961	4838
233.42099	4810
233.44235	4851
233.46373	4873
233.48511	4890
233.50647	4868
233.52785	4851
233.54921	4828
233.57059	4857
233.59195	4833
233.61333	4845
233.6347	4873
233.65607	4840
233.67744	4799
233.69881	4804
233.72018	4778
233.74155	4811
233.76291	4795
233.78429	4814
233.80565	4808
233.82703	4770
233.84839	4798
233.86977	4767
233.89113	4781
233.91249	4761
233.93387	4791
233.95523	4813
233.97659	4849
233.99797	4836
234.01933	4838
234.0407	4887
234.06207	4909
234.08344	4890
234.1048	4843
234.12617	4874
234.14754	4864
234.1689	4909
234.19026	4852
234.21164	4864
234.233	4889
234.25436	4863
234.27573	4820
234.29709	4863
234.31845	4890
234.33983	4918
234.36119	4912
234.38255	4833
234.40392	4913
234.42528	4898
234.44664	4912
234.468	4931
234.48936	4938
234.51073	4982
234.53209	4964
234.55345	4953
234.57483	4960
234.59619	4946
234.61755	4942
234.63892	4968
234.66028	4973
234.68163	4943
234.70299	4973
234.72435	4948
234.74571	4956
234.76707	4958
234.78844	4953
234.8098	4983
234.83116	5002
234.85252	4979
234.87389	4953
234.89525	4958
234.9166	4958
234.93796	4915
234.95932	4901
234.98068	4976
235.00204	4996
235.02339	4980
235.04475	4948
235.06612	5000
235.08748	4980
235.10883	4926
235.13019	4934
235.15155	4942
235.17291	4934
235.19426	4922
235.21562	4889
235.23698	4932
235.25833	4956
235.27969	4922
235.30106	4931
235.3224	4929
235.34377	4967
235.36511	4981
235.38647	4981
235.40784	4955
235.42918	4952
235.45055	5022
235.47189	5013
235.49326	5080
235.5146	5071
235.53596	5033
235.55731	5026
235.57867	5014
235.60002	5046
235.62138	5040
235.64273	5038
235.66409	5029
235.68544	5077
235.70679	5057
235.72815	5069
235.7495	5082
235.77086	5140
235.79221	5124
235.81355	5157
235.83492	5142
235.85626	5114
235.87761	5116
235.89897	5145
235.92032	5203
235.94167	5255
235.96301	5264
235.98438	5289
236.00572	5282
236.02707	5276
236.04842	5287
236.06978	5245
236.09113	5309
236.11247	5261
236.13382	5292
236.15517	5278
236.17653	5245
236.19788	5272
236.21922	5253
236.24057	5273
236.26192	5248
236.28326	5270
236.30461	5217
236.32596	5271
236.34731	5307
236.36865	5287
236.39001	5250
236.41136	5273
236.43271	5334
236.45406	5371
236.4754	5343
236.49675	5352
236.5181	5377
236.53943	5401
236.56078	5391
236.58212	5391
236.60347	5371
236.62482	5418
236.64616	5375
236.66751	5374
236.68886	5365
236.71021	5419
236.73155	5395
236.75288	5379
236.77423	5428
236.79558	5375
236.81693	5428
236.83827	5379
236.8596	5368
236.88095	5460
236.9023	5441
236.92365	5463
236.94498	5443
236.96632	5477
236.98767	5479
237.00902	5455
237.03035	5432
237.0517	5441
237.07304	5460
237.09438	5484
237.11572	5487
237.13707	5460
237.1584	5440
237.17975	5460
237.20108	5493
237.22243	5505
237.24376	5553
237.26511	5545
237.28645	5562
237.30779	5554
237.32913	5561
237.35046	5566
237.37181	5629
237.39314	5663
237.41449	5640
237.43582	5627
237.45717	5605
237.4785	5649
237.49983	5666
237.52118	5706
237.54251	5693
237.56386	5724
237.58519	5694
237.60652	5661
237.62787	5697
237.6492	5706
237.67053	5729
237.69188	5694
237.71321	5654
237.73454	5653
237.75589	5667
237.77722	5669
237.79855	5715
237.81989	5734
237.84123	5711
237.86256	5725
237.8839	5732
237.90523	5772
237.92656	5805
237.94791	5767
237.96924	5764
237.99057	5768
238.0119	5772
238.03323	5771
238.05457	5749
238.0759	5794
238.09723	5730
238.11858	5750
238.13991	5776
238.16124	5811
238.18257	5754
238.2039	5722
238.22523	5717
238.24657	5750
238.2679	5715
238.28923	5719
238.31056	5723
238.33189	5721
238.35323	5791
238.37456	5751
238.39587	5770
238.41721	5807
238.43854	5802
238.45987	5815
238.4812	5807
238.50253	5783
238.52386	5761
238.5452	5794
238.56651	5852
238.58784	5816
238.60918	5838
238.63051	5870
238.65184	5829
238.67316	5829
238.69449	5925
238.71582	5928
238.73715	5878
238.75847	5885
238.7798	5918
238.80113	5891
238.82245	5922
238.84378	5926
238.86511	5958
238.88643	5938
238.90776	5972
238.92909	5979
238.95041	5979
238.97174	5983
238.99306	6011
239.01439	5982
239.03572	5976
239.05704	6003
239.07837	6018
239.09969	6071
239.12102	6016
239.14233	6045
239.16367	6078
239.18498	6046
239.20631	6051
239.22763	6024
239.24896	6028
239.27028	6052
239.2916	6075
239.31293	6084
239.33424	6135
239.35558	6148
239.37689	6164
239.39821	6163
239.41954	6182
239.44086	6216
239.46217	6230
239.48351	6221
239.50482	6176
239.52614	6192
239.54745	6213
239.56879	6170
239.5901	6221
239.61142	6274
239.63274	6284
239.65407	6205
239.67538	6203
239.6967	6209
239.71802	6233
239.73933	6256
239.76065	6297
239.78198	6297
239.8033	6374
239.82462	6361
239.84593	6360
239.86725	6374
239.88857	6367
239.90988	6394
239.9312	6473
239.95251	6483
239.97383	6424
239.99515	6417
240.01646	6372
240.03778	6417
240.0591	6436
240.08041	6451
240.10173	6475
240.12305	6552
240.14436	6584
240.16568	6586
240.187	6489
240.20831	6485
240.22963	6517
240.25095	6502
240.27225	6588
240.29356	6575
240.31488	6621
240.3362	6623
240.35751	6597
240.37881	6591
240.40013	6591
240.42145	6637
240.44276	6615
240.46408	6656
240.48538	6683
240.5067	6641
240.52802	6605
240.54932	6639
240.57063	6610
240.59195	6637
240.61325	6613
240.63457	6630
240.65588	6648
240.67719	6658
240.6985	6682
240.7198	6672
240.74112	6696
240.76244	6682
240.78374	6751
240.80505	6767
240.82635	6771
240.84767	6826
240.86897	6819
240.89029	6843
240.91159	6789
240.93291	6750
240.95421	6776
240.97552	6791
240.99683	6755
241.01814	6715
241.03944	6780
241.06075	6806
241.08206	6815
241.10336	6767
241.12466	6834
241.14598	6855
241.16728	6819
241.18858	6798
241.2099	6909
241.2312	6924
241.2525	7007
241.27382	6964
241.29512	6985
241.31642	7009
241.33772	6973
241.35904	6976
241.38034	6974
241.40164	6974
241.42294	6974
241.44424	7012
241.46556	6951
241.48686	6976
241.50816	7022
241.52946	6997
241.55077	7076
241.57207	7043
241.59337	7120
241.61467	7177
241.63597	7158
241.65727	7125
241.67857	7164
241.69987	7195
241.72119	7256
241.74249	7333
241.76378	7381
241.78508	7398
241.80638	7370
241.82768	7348
241.84898	7403
241.87029	7353
241.89159	7384
241.91289	7366
241.93419	7376
241.95549	7391
241.97679	7388
241.99809	7375
242.01938	7408
242.04068	7401
242.06198	7362
242.08328	7362
242.10458	7377
242.12587	7399
242.14717	7435
242.16847	7420
242.18977	7441
242.21106	7482
242.23236	7547
242.25366	7588
242.27495	7572
242.29625	7578
242.31755	7559
242.33884	7582
242.36014	7612
242.38144	7569
242.40273	7568
242.42403	7580
242.44531	7595
242.46661	7527
242.48792	7599
242.5092	7634
242.5305	7678
242.55179	7626
242.57309	7665
242.59438	7675
242.61568	7644
242.63696	7606
242.65826	7581
242.67955	7636
242.70084	7601
242.72214	7672
242.74342	7709
242.76472	7743
242.78601	7714
242.8073	7657
242.8286	7700
242.84988	7705
242.87117	7714
242.89247	7778
242.91376	7786
242.93504	7811
242.95634	7767
242.97763	7758
242.99892	7844
243.0202	7881
243.0415	7919
243.06279	7934
243.08408	7875
243.10536	7925
243.12665	7893
243.14795	7938
243.16924	7928
243.19052	7948
243.21181	7994
243.23309	7983
243.25438	8035
243.27567	8075
243.29695	8079
243.31825	8039
243.33954	8081
243.36082	8093
243.38211	8070
243.4034	8087
243.42468	8101
243.44597	8150
243.46725	8130
243.48854	8091
243.50983	8054
243.5311	8041
243.55238	8022
243.57367	8064
243.59496	8111
243.61624	8126
243.63753	8069
243.65881	8108
243.6801	8161
243.70139	8133
243.72266	8111
243.74394	8133
243.76523	8143
243.78651	8134
243.8078	8153
243.82907	8140
243.85036	8140
243.87164	8192
243.89291	8172
243.9142	8088
243.93549	8164
243.95677	8133
243.97804	8208
243.99933	8208
244.02061	8189
244.04189	8214
244.06317	8155
244.08444	8153
244.10573	8057
244.12701	8144
244.14828	8061
244.16957	8050
244.19084	8112
244.21213	8102
244.2334	8114
244.25468	8073
244.27596	8116
244.29724	8066
244.31851	8102
244.3398	8142
244.36107	8196
244.38235	8284
244.40363	8322
244.4249	8194
244.44618	8266
244.46745	8318
244.48872	8281
244.51001	8339
244.53128	8383
244.55255	8366
244.57384	8385
244.59511	8267
244.61638	8250
244.63766	8278
244.65894	8286
244.68021	8346
244.70148	8412
244.72276	8465
244.74403	8510
244.7653	8454
244.78658	8474
244.80785	8537
244.82912	8521
244.8504	8472
244.87167	8550
244.89294	8577
244.91422	8646
244.93549	8536
244.95676	8508
244.97803	8494
244.9993	8504
245.02057	8563
245.04184	8637
245.06311	8589
245.08438	8581
245.10565	8554
245.12692	8574
245.14819	8601
245.16946	8623
245.19073	8587
245.21201	8653
245.23328	8725
245.25455	8739
245.27582	8656
245.29709	8664
245.31834	8733
245.33961	8724
245.36089	8764
245.38216	8758
245.40343	8847
245.4247	8808
245.44595	8812
245.46722	8724
245.48849	8726
245.50977	8693
245.53102	8654
245.55229	8810
245.57356	8801
245.59482	8810
245.61609	8881
245.63736	8881
245.65862	8893
245.67989	8922
245.70116	8941
245.72241	8962
245.74368	8962
245.76494	9008
245.78621	9015
245.80748	9017
245.82874	9021
245.85001	9033
245.87126	9040
245.89253	9074
245.91379	9162
245.93506	9196
245.95631	9167
245.97757	9157
245.99884	9194
246.0201	9270
246.04137	9305
246.06262	9377
246.08389	9413
246.10515	9419
246.1264	9479
246.14767	9501
246.16893	9509
246.19019	9457
246.21146	9439
246.23271	9490
246.25397	9514
246.27522	9528
246.29649	9489
246.31775	9460
246.339	9485
246.36026	9497
246.38153	9447
246.40279	9426
246.42404	9416
246.4453	9426
246.46655	9424
246.48781	9467
246.50906	9472
246.53033	9506
246.55159	9588
246.57285	9701
246.5941	9668
246.61536	9678
246.63661	9730
246.65787	9772
246.67912	9756
246.70038	9737
246.72163	9812
246.74289	9776
246.76414	9770
246.7854	9747
246.80666	9760
246.82791	9726
246.84917	9771
246.87042	9845
246.89166	9815
246.91292	9824
246.93417	9827
246.95543	9848
246.97668	9832
246.99794	9944
247.01918	9998
247.04044	10024
247.06169	10048
247.08295	10084
247.1042	10087
247.12544	10089
247.1467	10071
247.16795	10075
247.18919	10041
247.21045	10135
247.2317	10154
247.25294	10137
247.2742	10173
247.29546	10202
247.3167	10237
247.33795	10306
247.35919	10382
247.38045	10449
247.4017	10466
247.42294	10439
247.4442	10389
247.46544	10424
247.48669	10476
247.50793	10579
247.52919	10684
247.55043	10696
247.57169	10651
247.59293	10658
247.61418	10609
247.63542	10655
247.65666	10631
247.67792	10640
247.69916	10681
247.72041	10663
247.74165	10593
247.76289	10644
247.78415	10634
247.80539	10555
247.82663	10457
247.84787	10453
247.86913	10533
247.89037	10569
247.91161	10589
247.93285	10579
247.9541	10562
247.97534	10531
247.99658	10621
248.01782	10650
248.03906	10673
248.06032	10634
248.08156	10664
248.1028	10637
248.12404	10624
248.14528	10562
248.16652	10546
248.18776	10599
248.209	10587
248.23024	10511
248.25148	10481
248.27272	10480
248.29396	10476
248.3152	10451
248.33644	10461
248.35768	10548
248.37892	10520
248.40016	10431
248.4214	10417
248.44264	10442
248.46388	10458
248.48512	10464
248.50636	10516
248.52759	10541
248.54883	10454
248.57007	10453
248.59131	10397
248.61255	10394
248.63379	10407
248.65501	10463
248.67625	10549
248.69749	10560
248.71873	10526
248.73996	10536
248.7612	10488
248.78244	10602
248.80367	10680
248.82491	10606
248.84615	10529
248.86737	10564
248.88861	10492
248.90985	10528
248.93108	10564
248.95232	10587
248.97354	10690
248.99478	10695
249.01601	10662
249.03725	10731
249.05847	10802
249.07971	10853
249.10094	10793
249.12218	10787
249.1434	10781
249.16464	10723
249.18587	10766
249.20711	10824
249.22833	10823
249.24956	10801
249.2708	10746
249.29202	10726
249.31326	10666
249.33449	10726
249.35571	10726
249.37695	10837
249.39818	10867
249.4194	10840
249.44063	10847
249.46187	10924
249.48309	10896
249.50432	10923
249.52554	10883
249.54678	10893
249.56801	10954
249.58923	10863
249.61046	10919
249.63168	10952
249.65291	10975
249.67413	10894
249.69537	10874
249.7166	10969
249.73782	11041
249.75905	11087
249.78027	11081
249.8015	11051
249.82272	11048
249.84395	10998
249.86517	10913
249.8864	10859
249.90762	10799
249.92885	10792
249.95007	10813
249.9713	10888
249.99252	10917
250.01375	10803
250.03496	10803
250.05618	10840
250.07741	10745
250.09863	10807
250.11986	10846
250.14108	10958
250.16231	11031
250.18352	10971
250.20474	10913
250.22597	10972
250.24719	11042
250.2684	11073
250.28963	11112
250.31085	11159
250.33206	11117
250.35329	11076
250.37451	11021
250.39572	10997
250.41695	10977
250.43817	10986
250.45938	11071
250.48061	11209
250.50183	11316
250.52304	11340
250.54427	11291
250.56548	11267
250.5867	11412
250.60791	11418
250.62914	11481
250.65034	11541
250.67157	11570
250.69278	11575
250.714	11543
250.73521	11533
250.75644	11538
250.77765	11545
250.79886	11583
250.82008	11578
250.84129	11624
250.8625	11549
250.88373	11574
250.90494	11561
250.92615	11564
250.94737	11604
250.96858	11614
250.98979	11679
251.01102	11709
251.03223	11540
251.05344	11605
251.07465	11598
251.09586	11650
251.11708	11659
251.13829	11761
251.1595	11782
251.18071	11844
251.20192	11795
251.22313	11722
251.24434	11648
251.26556	11623
251.28677	11604
251.30798	11680
251.32919	11717
251.3504	11770
251.37161	11733
251.39282	11766
251.41403	11730
251.43524	11719
251.45645	11802
251.47766	11774
251.49887	11783
251.52008	11792
251.54128	11875
251.56248	11807
251.58369	11802
251.6049	11743
251.62611	11737
251.64732	11765
251.66853	11856
251.68973	12006
251.71094	12003
251.73215	11979
251.75336	11974
251.77457	11927
251.79576	11990
251.81697	12074
251.83818	12135
251.85938	12244
251.88058	12262
251.90179	12259
251.92299	12321
251.9442	12295
251.96541	12357
251.9866	12440
252.00781	12440
252.02901	12437
252.05022	12433
252.07143	12394
252.09262	12491
252.11383	12451
252.13503	12413
252.15623	12444
252.17743	12383
252.19864	12412
252.21983	12350
252.24104	12424
252.26224	12488
252.28343	12508
252.30464	12553
252.32584	12698
252.34705	12679
252.36824	12716
252.38943	12684
252.41064	12743
252.43184	12749
252.45303	12739
252.47424	12741
252.49544	12797
252.51663	12818
252.53783	12756
252.55904	12685
252.58023	12731
252.60143	12723
252.62262	12721
252.64381	12766
252.66502	12724
252.68622	12702
252.70741	12668
252.72861	12672
252.7498	12684
252.771	12803
252.79219	12828
252.81339	12923
252.83458	12898
252.85577	12902
252.87698	12831
252.89818	12809
252.91937	12899
252.94057	12861
252.96175	12908
252.98294	13005
253.00414	13028
253.02533	13060
253.04652	12984
253.06772	13019
253.08891	13101
253.11011	13236
253.1313	13276
253.1525	13391
253.17368	13271
253.19487	13220
253.21606	13217
253.23726	13179
253.25845	13204
253.27963	13402
253.30083	13451
253.32202	13467
253.34322	13506
253.3644	13530
253.38559	13541
253.40678	13488
253.42796	13434
253.44916	13464
253.47035	13440
253.49153	13398
253.51273	13380
253.53391	13408
253.5551	13325
253.57628	13363
253.59747	13317
253.61867	13330
253.63985	13509
253.66104	13551
253.68222	13544
253.7034	13552
253.72459	13556
253.74577	13542
253.76697	13661
253.78815	13791
253.80934	13855
253.83052	13746
253.8517	13822
253.87289	13955
253.89407	13873
253.91525	13769
253.93645	13786
253.95763	13792
253.97881	13778
254	13794
254.02118	13884
254.04236	13943
254.06354	13990
254.08473	14054
254.10591	14253
254.12709	14244
254.14827	14171
254.16945	14143
254.19063	14084
254.21182	14113
254.233	14082
254.25418	14290
254.27536	14257
254.29654	14334
254.31772	14329
254.3389	14174
254.36008	14136
254.38126	14208
254.40244	14293
254.42361	14349
254.44479	14472
254.46597	14516
254.48715	14584
254.50833	14529
254.52951	14443
254.55069	14587
254.57187	14639
254.59303	14628
254.61421	14633
254.63539	14626
254.65657	14588
254.67775	14606
254.69893	14570
254.72009	14600
254.74127	14599
254.76245	14658
254.78363	14771
254.80479	14761
254.82597	14835
254.84715	14883
254.86833	14856
254.8895	14971
254.91068	15042
254.93185	15003
254.95302	15090
254.9742	15105
254.99536	15046
255.01654	14960
255.03772	15074
255.05888	15050
255.08006	15061
255.10123	15110
255.12241	15166
255.14357	15129
255.16475	15236
255.18591	15157
255.20709	15175
255.22826	15225
255.24942	15223
255.2706	15316
255.29176	15282
255.31294	15290
255.33411	15209
255.35527	15263
255.37645	15211
255.39761	15374
255.41878	15295
255.43996	15330
255.46112	15443
255.48228	15468
255.50345	15523
255.52463	15538
255.54579	15373
255.56696	15330
255.58812	15331
255.60928	15134
255.63046	15096
255.65163	14984
255.67279	14940
255.69395	15004
255.71512	15010
255.73628	15127
255.75745	15153
255.77861	15132
255.79977	15171
255.82094	15113
255.8421	15158
255.86327	15201
255.88443	15346
255.90559	15427
255.92676	15535
255.94792	15461
255.96909	15495
255.99025	15632
256.01141	15772
256.03256	15808
256.05374	15751
256.07489	15794
256.09607	15769
256.11722	15700
256.1384	15653
256.15955	15646
256.18069	15654
256.20187	15644
256.22302	15821
256.2442	15985
256.26535	16053
256.2865	15923
256.30768	15893
256.32883	15994
256.34998	16045
256.37115	16242
256.3923	16330
256.41345	16472
256.43463	16527
256.45578	16528
256.47693	16471
256.49808	16372
256.51926	16432
256.54041	16475
256.56155	16445
256.5827	16521
256.60388	16459
256.62503	16457
256.64618	16522
256.66733	16532
256.68851	16590
256.70966	16582
256.7308	16548
256.75195	16569
