Date and Time:                Fri Oct 7 11:54:15.000 2022
Software Version:             4.31.30023.0
Temperature (C):              -40
Model:                        DU940P_BU2
Data Type:                    Counts
Acquisition Mode:             Single Scan
Trigger Mode:                 Internal
Exposure Time (secs):         28
Readout Mode:                 Full Vertical Binning
Horizontal binning:           1
Extended Dynamic Range:       off
Horizontally flipped:         false
Vertical Shift Speed (usecs): 14.51
Pixel Readout Rate (MHz):     3
Baseline Clamp:               ON
Clock Amplitude:              Normal
Output Amplifier:             High Capacity
Serial Number:                23634
Pre-Amplifier Gain:           1.000000
Spurious Noise Filter Mode:   No Filter
Photon counted:               false
Data Averaging Filter Mode:   No Filter
SR500i:
Serial Number:                
Wavelength (nm):              225
Grating Groove Density (l/mm):1199.47
Grating Blaze:                500
Output Flipper Port:          Direct
Accessory Output Port 1:      Off
Accessory Output Port 2:      Off
Accessory Output Port 3:      Off
Accessory Input Port:         On



203.08546	3221
203.10698	3102
203.12848	3080
203.14999	3092
203.17151	3090
203.19302	3152
203.21452	3150
203.23604	3167
203.25755	3182
203.27905	3170
203.30057	3149
203.32208	3142
203.34358	3182
203.3651	3205
203.38661	3195
203.40811	3245
203.42963	3274
203.45113	3280
203.47264	3295
203.49416	3288
203.51566	3327
203.53717	3324
203.55867	3355
203.58018	3356
203.60168	3353
203.6232	3393
203.6447	3424
203.66621	3494
203.68771	3467
203.70923	3497
203.73073	3507
203.75224	3487
203.77374	3542
203.79526	3545
203.81676	3580
203.83827	3577
203.85977	3622
203.88127	3589
203.90279	3665
203.92429	3693
203.94579	3688
203.9673	3684
203.9888	3666
204.01031	3702
204.03181	3732
204.05331	3774
204.07481	3766
204.09633	3781
204.11783	3786
204.13933	3832
204.16084	3855
204.18234	3844
204.20384	3893
204.22534	3892
204.24684	3927
204.26836	3920
204.28986	3960
204.31136	4038
204.33286	3981
204.35435	3996
204.37587	4025
204.39737	4051
204.41887	4053
204.44037	4062
204.46187	4080
204.48337	4099
204.50487	4110
204.52637	4129
204.54787	4165
204.56937	4152
204.59087	4154
204.61237	4210
204.63387	4256
204.65536	4251
204.67688	4273
204.69836	4316
204.71986	4326
204.74136	4324
204.76286	4329
204.78436	4397
204.80586	4389
204.82736	4415
204.84886	4413
204.87036	4466
204.89186	4429
204.91336	4483
204.93486	4530
204.95636	4570
204.97784	4597
204.99934	4611
205.02084	4628
205.04234	4646
205.06384	4679
205.08534	4711
205.10683	4729
205.12833	4786
205.14983	4795
205.17133	4803
205.19281	4834
205.21431	4874
205.23581	4879
205.25731	4915
205.27879	4939
205.30029	4958
205.32179	4990
205.34328	5017
205.36478	5052
205.38628	5082
205.40776	5097
205.42926	5132
205.45074	5113
205.47224	5115
205.49374	5159
205.51523	5192
205.53673	5252
205.55821	5224
205.57971	5238
205.6012	5312
205.6227	5328
205.6442	5382
205.66568	5420
205.68718	5469
205.70866	5480
205.73015	5480
205.75165	5490
205.77313	5518
205.79463	5550
205.81612	5583
205.83762	5564
205.8591	5563
205.88058	5604
205.90208	5636
205.92357	5676
205.94507	5652
205.96655	5714
205.98804	5719
206.00954	5733
206.03102	5764
206.05251	5812
206.07401	5846
206.09549	5844
206.11697	5901
206.13846	5916
206.15996	5957
206.18144	5979
206.20293	6012
206.22441	6025
206.24591	6066
206.2674	6146
206.28888	6159
206.31036	6267
206.33185	6246
206.35335	6291
206.37483	6317
206.39632	6349
206.4178	6402
206.43929	6450
206.46077	6464
206.48225	6527
206.50374	6530
206.52522	6522
206.54672	6585
206.56821	6643
206.58969	6683
206.61118	6746
206.63266	6769
206.65414	6865
206.67563	6977
206.69711	6984
206.7186	6991
206.74008	7015
206.76157	7050
206.78304	7068
206.80452	7175
206.826	7195
206.84749	7208
206.86897	7264
206.89046	7254
206.91194	7324
206.93343	7337
206.95491	7331
206.97638	7408
206.99786	7484
207.01935	7496
207.04083	7545
207.06232	7571
207.0838	7674
207.10527	7691
207.12675	7711
207.14824	7750
207.16972	7807
207.19119	7822
207.21268	7824
207.23416	7805
207.25563	7827
207.27711	7934
207.2986	7974
207.32007	8026
207.34155	8083
207.36304	8135
207.38451	8236
207.40599	8274
207.42747	8304
207.44894	8347
207.47043	8339
207.4919	8333
207.51338	8346
207.53487	8374
207.55634	8380
207.57782	8445
207.59929	8563
207.62077	8585
207.64224	8603
207.66373	8630
207.6852	8634
207.70668	8707
207.72815	8772
207.74962	8913
207.7711	9050
207.79257	9083
207.81406	9075
207.83553	9087
207.85701	9138
207.87848	9204
207.89995	9216
207.92143	9238
207.9429	9328
207.96437	9340
207.98586	9423
208.00732	9404
208.02879	9428
208.05028	9493
208.07175	9498
208.09322	9617
208.11469	9714
208.13617	9788
208.15764	9807
208.17911	9792
208.20058	9829
208.22205	9848
208.24353	9983
208.265	10047
208.28647	10149
208.30794	10273
208.32941	10269
208.35088	10301
208.37236	10345
208.39383	10308
208.4153	10367
208.43677	10424
208.45824	10466
208.47971	10549
208.50117	10492
208.52264	10552
208.54411	10612
208.56558	10607
208.58705	10624
208.60852	10564
208.62999	10597
208.65146	10633
208.67293	10667
208.6944	10728
208.71587	10812
208.73734	10920
208.7588	11005
208.78027	11032
208.80174	11130
208.82321	11186
208.84467	11201
208.86613	11208
208.8876	11182
208.90907	11249
208.93054	11257
208.95201	11286
208.97346	11342
208.99493	11340
209.0164	11300
209.03787	11380
209.05934	11470
209.0808	11512
209.10226	11510
209.12373	11497
209.1452	11552
209.16666	11554
209.18813	11642
209.20959	11742
209.23105	11881
209.25252	12029
209.27399	12005
209.29544	11885
209.31691	12006
209.33836	12010
209.35983	12035
209.3813	12136
209.40276	12157
209.42422	12265
209.44568	12291
209.46715	12260
209.4886	12280
209.51007	12360
209.53152	12416
209.55299	12521
209.57445	12691
209.59592	12743
209.61737	12744
209.63884	12716
209.66029	12770
209.68176	12823
209.70322	12863
209.72469	12951
209.74614	13130
209.76759	13146
209.78906	13172
209.81052	13121
209.83197	13231
209.85344	13234
209.87489	13336
209.89635	13398
209.91782	13413
209.93927	13441
209.96072	13419
209.98219	13473
210.00365	13601
210.0251	13652
210.04655	13708
210.06802	13764
210.08948	13878
210.11093	13963
210.13239	13902
210.15384	13979
210.17531	14064
210.19676	14197
210.21822	14315
210.23967	14371
210.26112	14419
210.28258	14572
210.30403	14616
210.32549	14739
210.34695	14846
210.36841	14819
210.38986	14789
210.41132	14840
210.43277	14933
210.45422	15005
210.47568	15102
210.49713	15303
210.51859	15418
210.54004	15423
210.56149	15421
210.58295	15463
210.6044	15538
210.62585	15588
210.64729	15682
210.66875	15775
210.6902	15878
210.71165	15986
210.73311	16005
210.75456	16056
210.77602	16218
210.79747	16299
210.81891	16422
210.84036	16507
210.86182	16558
210.88327	16628
210.90472	16713
210.92616	16745
210.94762	16868
210.96907	16948
210.99052	17079
211.01196	17164
211.03342	17311
211.05487	17385
211.07631	17496
211.09776	17461
211.11922	17506
211.14066	17534
211.16211	17553
211.18356	17706
211.205	17776
211.22646	17847
211.24791	17902
211.26935	17858
211.2908	17823
211.31224	17846
211.33369	18008
211.35513	18114
211.37659	18286
211.39803	18255
211.41948	18282
211.44092	18356
211.46237	18483
211.48381	18523
211.50526	18663
211.5267	18825
211.54816	18912
211.5696	18928
211.59103	18932
211.61249	19015
211.63393	19176
211.65538	19275
211.67682	19325
211.69826	19324
211.71971	19611
211.74115	19645
211.76259	19709
211.78404	19796
211.80548	19734
211.82692	19783
211.84836	19717
211.86981	19727
211.89125	19721
211.91269	19866
211.93413	20016
211.95558	20148
211.97702	20265
211.99846	20241
212.0199	20262
212.04134	20276
212.06277	20369
212.08423	20408
212.10567	20568
212.12711	20785
212.14854	20993
212.16998	21090
212.19142	21080
212.21286	21139
212.2343	21325
212.25574	21368
212.27718	21437
212.29861	21602
212.32005	21611
212.34149	21721
212.36293	21667
212.38437	21692
212.40581	21860
212.42725	21981
212.44868	22104
212.47012	22231
212.49156	22458
212.513	22686
212.53444	22605
212.55588	22652
212.57732	22723
212.59874	22848
212.62018	23019
212.64162	23146
212.66306	23375
212.68449	23539
212.70593	23632
212.72736	23581
212.74879	23661
212.77023	23685
212.79167	23816
212.8131	23918
212.83453	24189
212.85597	24117
212.87741	24089
212.89883	24134
212.92027	24341
212.94171	24438
212.96313	24509
212.98457	24542
213.00601	24602
213.02744	24641
213.04887	24656
213.0703	24655
213.09174	24584
213.11317	24728
213.1346	24895
213.15604	25182
213.17746	25383
213.1989	25466
213.22032	25521
213.24176	25536
213.26318	25592
213.28462	25561
213.30605	25548
213.32748	25561
213.34891	25597
213.37033	25550
213.39177	25621
213.41319	25825
213.43463	25953
213.45605	26116
213.47748	26069
213.49892	26079
213.52034	26113
213.54176	26224
213.5632	26386
213.58463	26627
213.60605	26913
213.62749	27065
213.64891	27068
213.67033	27193
213.69177	27462
213.7132	27410
213.73462	27273
213.75604	27404
213.77747	27612
213.7989	27775
213.82033	27836
213.84175	27748
213.86317	27752
213.8846	27850
213.90602	28005
213.92744	28381
213.94888	28602
213.97031	28752
213.99173	28809
214.01315	28853
214.03458	28821
214.056	28942
214.07742	29062
214.09885	29433
214.12027	29784
214.14169	29970
214.16312	29976
214.18454	30120
214.20596	30172
214.22739	30170
214.24881	30105
214.27023	30280
214.29166	30352
214.31308	30472
214.33449	30249
214.35591	30305
214.37733	30355
214.39876	30422
214.42018	30349
214.4416	30188
214.46303	30265
214.48444	30156
214.50586	30398
214.52728	30590
214.54871	30641
214.57011	30638
214.59154	30917
214.61296	31193
214.63438	31426
214.65579	31358
214.67722	31389
214.69864	31461
214.72005	31390
214.74147	31519
214.76289	31370
214.7843	31596
214.80573	31547
214.82715	31447
214.84856	31255
214.86998	31265
214.89139	31510
214.91281	31676
214.93423	31628
214.95564	31724
214.97707	31768
214.99847	31668
215.0199	31774
215.04131	31777
215.06273	32140
215.08414	32229
215.10556	32296
215.12697	32274
215.14838	32390
215.1698	32288
215.19121	32135
215.21263	32233
215.23404	32277
215.25545	32345
215.27687	32561
215.29828	32447
215.31969	32233
215.34111	32179
215.36252	32317
215.38393	32635
215.40535	32868
215.42676	32968
215.44817	32963
215.46957	32781
215.491	32846
215.51241	32990
215.53381	33228
215.55522	33151
215.57663	33380
215.59805	33533
215.61946	33372
215.64087	33423
215.66228	33513
215.68369	33574
215.70509	33755
215.7265	33869
215.74792	33857
215.76933	33775
215.79074	33780
215.81215	33914
215.83356	34000
215.85497	33985
215.87637	33810
215.89778	33697
215.91919	33718
215.9406	33859
215.96201	33893
215.98341	34116
216.00482	34165
216.02623	34157
216.04762	34257
216.06903	34334
216.09044	34500
216.11185	34347
216.13326	34336
216.15466	34521
216.17607	34601
216.19748	34486
216.21887	34503
216.24028	34478
216.26169	34764
216.2831	34683
216.3045	34681
216.3259	34771
216.34731	34752
216.36871	34699
216.39012	34434
216.41151	34156
216.43292	34159
216.45433	34120
216.47572	34307
216.49713	34323
216.51854	34528
216.53993	34308
216.56134	34217
216.58273	34362
216.60414	34462
216.62555	34492
216.64694	34606
216.66835	34584
216.68974	34613
216.71115	34475
216.73254	34550
216.75395	34474
216.77534	34563
216.79675	34756
216.81815	34618
216.83955	34798
216.86095	35030
216.88235	35357
216.90375	35220
216.92514	35062
216.94655	35145
216.96794	35143
216.98935	35232
217.01074	35120
217.03214	35334
217.05354	35310
217.07494	35213
217.09633	35122
217.11774	35019
217.13913	34944
217.16052	34776
217.18192	34977
217.20332	35164
217.22472	35021
217.24611	34822
217.2675	34756
217.28891	34738
217.3103	34806
217.3317	34708
217.35309	34823
217.37448	34831
217.39587	34560
217.41727	34450
217.43867	34404
217.46007	34282
217.48146	34346
217.50285	34457
217.52425	34500
217.54564	34625
217.56703	34759
217.58842	34704
217.60982	34669
217.63121	34570
217.6526	34494
217.674	34124
217.69539	34071
217.71678	33785
217.73817	33728
217.75957	33778
217.78096	33744
217.80235	33663
217.82373	33591
217.84512	33429
217.86652	33412
217.88791	33257
217.9093	33095
217.93069	33215
217.95209	33504
217.97346	33658
217.99486	33494
218.01625	33290
218.03764	33401
218.05902	33415
218.08041	33374
218.10181	33316
218.1232	33227
218.14458	33162
218.16597	32969
218.18736	32841
218.20874	32953
218.23013	32890
218.25153	32828
218.2729	32633
218.2943	32954
218.31567	33132
218.33707	33194
218.35846	32880
218.37984	32694
218.40123	32705
218.42261	32774
218.444	32873
218.46538	33044
218.48677	33224
218.50815	33287
218.52954	33043
218.55092	32934
218.57231	32707
218.59369	32697
218.61507	32683
218.63646	32855
218.65784	32827
218.67923	32551
218.70061	32364
218.72198	32450
218.74338	32485
218.76476	32297
218.78613	32055
218.80753	31896
218.8289	31870
218.85028	31701
218.87166	31686
218.89305	31691
218.91443	31644
218.93581	31664
218.95718	31813
218.97858	31892
218.99995	31833
219.02133	31839
219.04271	31715
219.06409	31775
219.08546	31470
219.10686	31319
219.12823	31342
219.14961	31299
219.17099	31255
219.19237	30938
219.21375	30951
219.23512	30956
219.2565	30999
219.27788	30845
219.29926	30812
219.32063	30707
219.34201	30614
219.36339	30601
219.38477	30830
219.40614	31006
219.42752	31192
219.4489	31247
219.47028	30982
219.49165	30957
219.51303	30867
219.53439	30708
219.55577	30510
219.57715	30535
219.59853	30587
219.6199	30561
219.64128	30469
219.66264	30280
219.68402	30110
219.7054	29938
219.72678	30213
219.74814	30424
219.76952	30441
219.79089	30384
219.81227	30328
219.83363	30116
219.85501	29974
219.87639	29952
219.89775	30196
219.91913	30401
219.94051	30730
219.96187	30613
219.98325	30456
220.00461	30446
220.02599	30481
220.04735	30394
220.06873	30312
220.0901	30330
220.11147	30268
220.13284	30076
220.15421	29966
220.17558	29888
220.19695	29925
220.21832	29862
220.23969	29599
220.26105	29376
220.28242	29537
220.30379	29496
220.32516	29487
220.34653	29648
220.36789	29631
220.38927	29608
220.41063	29793
220.43199	30000
220.45337	29906
220.47473	29720
220.49609	29690
220.51747	29766
220.53883	29639
220.5602	29449
220.58156	29530
220.60294	29598
220.6243	29378
220.64566	29083
220.66702	28990
220.68839	29187
220.70976	29153
220.73112	29299
220.75249	29339
220.77385	29296
220.79521	29299
220.81657	28947
220.83794	28846
220.8593	28982
220.88066	29008
220.90202	28980
220.92339	29136
220.94475	29205
220.96611	29212
220.98747	29078
221.00883	28910
221.0302	28884
221.05156	28867
221.07292	28985
221.09428	29163
221.11565	29102
221.13701	28936
221.15837	28830
221.17973	28910
221.2011	29105
221.22246	29173
221.2438	29205
221.26517	29052
221.28653	29073
221.30789	29144
221.32925	28937
221.3506	28896
221.37196	28976
221.39333	28990
221.41469	28997
221.43604	28911
221.4574	28957
221.47876	28988
221.50011	29131
221.52147	29114
221.54283	29126
221.56418	29127
221.58554	29013
221.6069	28868
221.62825	28933
221.64961	28947
221.67096	28921
221.69232	28660
221.71368	28632
221.73503	28673
221.75639	28729
221.77774	28939
221.7991	29015
221.82045	28959
221.84181	29003
221.86316	29010
221.88451	29051
221.90587	29006
221.92722	29097
221.94858	29213
221.96992	29285
221.99127	29218
222.01263	29327
222.03398	29273
222.05534	29309
222.07669	29369
222.09804	29258
222.11938	29455
222.14075	29751
222.16209	29751
222.18344	29511
222.2048	29184
222.22615	29004
222.2475	28925
222.26884	28889
222.29019	28891
222.31155	28977
222.3329	28990
222.35425	28887
222.3756	28766
222.39694	28936
222.41829	29135
222.43964	29179
222.46098	29269
222.48235	29316
222.50369	29281
222.52504	29219
222.54639	29142
222.56773	29264
222.58908	29365
222.61043	29374
222.63177	29239
222.65312	29568
222.67447	29843
222.69582	29863
222.71715	29678
222.73849	29609
222.75984	29582
222.78119	29731
222.80254	29797
222.82388	29882
222.84523	29993
222.86658	30051
222.88791	29962
222.90926	29961
222.9306	29769
222.95195	29854
222.9733	29948
222.99463	30210
223.01598	30126
223.03732	29988
223.05867	29888
223.08	29827
223.10135	29986
223.1227	30173
223.14403	30142
223.16537	30071
223.18672	29969
223.20805	29912
223.2294	29799
223.25073	29783
223.27208	29788
223.29343	29846
223.31476	29903
223.33611	29986
223.35744	30139
223.37878	30122
223.40012	30068
223.42146	30020
223.44279	29889
223.46414	29792
223.48547	29624
223.50682	29714
223.52815	29558
223.54948	29540
223.57083	29645
223.59216	29744
223.61349	29820
223.63484	29847
223.65617	29763
223.67752	29718
223.69885	29776
223.72018	29808
223.74152	30144
223.76286	30535
223.78419	30696
223.80553	30683
223.82686	30566
223.84821	30418
223.86954	30383
223.89087	30344
223.9122	30439
223.93353	30528
223.95488	30476
223.97621	30429
223.99754	30234
224.01888	30143
224.04021	29950
224.06154	29912
224.08287	30024
224.1042	30374
224.12553	30557
224.14687	30557
224.1682	30430
224.18953	30084
224.21086	30068
224.23219	30122
224.25352	30346
224.27486	30596
224.29619	30892
224.31752	30916
224.33885	30902
224.36018	30893
224.38152	30917
224.40285	30838
224.42418	30978
224.4455	31067
224.46683	30891
224.48816	30700
224.50949	30516
224.53082	30308
224.55214	30202
224.57347	30145
224.5948	30234
224.61613	30378
224.63745	30418
224.65878	30347
224.68011	30268
224.70145	30346
224.72276	30474
224.74409	30594
224.76541	30846
224.78674	31133
224.80807	31018
224.82939	30995
224.85072	31216
224.87204	31313
224.89337	31130
224.9147	30723
224.93602	30840
224.95735	30848
224.97867	30760
225	30627
225.02132	30648
225.04265	31093
225.06396	31288
225.08528	31239
225.10661	31216
225.12793	31260
225.14926	31198
225.17058	31253
225.19189	31390
225.21323	31611
225.23454	31700
225.25586	31653
225.27719	31552
225.29851	31637
225.31982	31561
225.34116	31323
225.36247	31501
225.38379	31355
225.40511	31436
225.42644	31369
225.44775	31339
225.46907	31237
225.49039	31273
225.5117	31223
225.53304	31498
225.55435	31450
225.57567	31560
225.59698	31535
225.6183	31405
225.63962	31373
225.66093	31364
225.68225	31439
225.70357	31615
225.72488	31703
225.7462	31824
225.76752	31781
225.78883	31739
225.81015	31588
225.83147	31615
225.85278	31682
225.8741	31678
225.89542	31679
225.91673	31604
225.93805	31599
225.95937	31553
225.98068	31489
226.00198	31618
226.0233	31414
226.04462	31291
226.06593	31455
226.08725	31565
226.10855	31611
226.12987	31568
226.15118	31466
226.1725	31654
226.1938	31739
226.21512	31826
226.23643	31787
226.25775	31832
226.27905	31737
226.30037	31586
226.32167	31586
226.34299	31533
226.3643	31524
226.3856	31494
226.40692	31462
226.42824	31294
226.44954	31047
226.47086	31194
226.49216	31166
226.51347	31026
226.53477	30952
226.55609	30839
226.57739	30861
226.59871	30702
226.62001	30423
226.64131	30281
226.66263	30386
226.68393	30382
226.70525	30313
226.72655	30524
226.74785	30638
226.76917	30512
226.79047	30318
226.81177	30413
226.83308	30405
226.85439	30279
226.87569	30282
226.897	30357
226.9183	30477
226.93961	30342
226.96091	30403
226.98222	30413
227.00352	30758
227.02483	30775
227.04613	30810
227.06743	30673
227.08873	30465
227.11005	30419
227.13135	30272
227.15265	30298
227.17395	30495
227.19525	30567
