Date and Time:                Sat Jan 28 15:56:16.000 2023
Software Version:             4.31.30023.0
Temperature (C):              -40
Model:                        DU940P_BU2
Data Type:                    Counts
Acquisition Mode:             Single Scan
Trigger Mode:                 Internal
Exposure Time (secs):         1
Readout Mode:                 Full Vertical Binning
Horizontal binning:           1
Extended Dynamic Range:       off
Horizontally flipped:         false
Vertical Shift Speed (usecs): 14.51
Pixel Readout Rate (MHz):     3
Baseline Clamp:               ON
Clock Amplitude:              Normal
Output Amplifier:             High Capacity
Serial Number:                23634
Pre-Amplifier Gain:           1.000000
Spurious Noise Filter Mode:   No Filter
Photon counted:               false
Data Averaging Filter Mode:   No Filter
SR500i:
Serial Number:                
Wavelength (nm):              255
Grating Groove Density (l/mm):1199.47
Grating Blaze:                500
Output Flipper Port:          Direct
Accessory Output Port 1:      Off
Accessory Output Port 2:      Off
Accessory Output Port 3:      Off
Accessory Input Port:         On



233.22879	5072
233.25017	4860
233.27155	4877
233.29292	4821
233.3143	4857
233.33568	4888
233.35706	4892
233.37842	4883
233.3998	4861
233.42117	4828
233.44255	4822
233.46393	4802
233.48531	4792
233.50668	4819
233.52805	4853
233.54942	4816
233.5708	4864
233.59218	4853
233.61356	4891
233.63492	4877
233.6563	4857
233.67767	4866
233.69904	4889
233.72041	4852
233.74179	4915
233.76317	4897
233.78453	4915
233.80591	4907
233.82729	4901
233.84865	4918
233.87003	4963
233.89139	4978
233.91277	4957
233.93414	4994
233.95551	4961
233.97688	4950
233.99825	4966
234.01962	4998
234.04099	4987
234.06236	5026
234.08374	4997
234.1051	4968
234.12648	4980
234.14784	4966
234.16922	4984
234.19058	4972
234.21194	5019
234.23332	5009
234.25468	4988
234.27606	5051
234.29742	5033
234.31879	4988
234.34016	5039
234.36153	5031
234.3829	5049
234.40427	5043
234.42563	5018
234.44701	5065
234.46837	5062
234.48973	5088
234.51111	5118
234.53247	5078
234.55383	5107
234.5752	5104
234.59657	5087
234.61794	5062
234.6393	5023
234.66066	5050
234.68202	4984
234.7034	4983
234.72476	4988
234.74612	4971
234.76749	4997
234.78885	4990
234.81021	5023
234.83159	4973
234.85295	4983
234.87431	4983
234.89568	4983
234.91704	4962
234.9384	4986
234.95976	4999
234.98112	5010
235.00249	5027
235.02385	5018
235.04521	5038
235.06657	5075
235.08794	5023
235.1093	5019
235.13066	5040
235.15202	5069
235.17339	5055
235.19475	5034
235.21611	5002
235.23747	5049
235.25883	5027
235.28018	5042
235.30154	5044
235.32291	5068
235.34427	5076
235.36563	5077
235.38699	5042
235.40836	5053
235.4297	5041
235.45107	5063
235.47243	5104
235.49379	5135
235.51514	5151
235.5365	5147
235.55786	5141
235.57922	5147
235.60057	5125
235.62193	5125
235.6433	5123
235.66464	5162
235.686	5172
235.70737	5132
235.72871	5169
235.75008	5165
235.77144	5145
235.79279	5125
235.81415	5161
235.83549	5184
235.85686	5149
235.87822	5137
235.89957	5122
235.92093	5073
235.94228	5113
235.96364	5151
235.98499	5167
236.00635	5155
236.02769	5193
236.04906	5147
236.0704	5182
236.09177	5149
236.11311	5173
236.13446	5146
236.15582	5144
236.17717	5161
236.19853	5142
236.21988	5109
236.24123	5151
236.26259	5162
236.28394	5153
236.30528	5164
236.32664	5152
236.34799	5188
236.36934	5188
236.3907	5190
236.41205	5207
236.4334	5245
236.45474	5235
236.4761	5239
236.49745	5265
236.5188	5311
236.54015	5295
236.56149	5288
236.58286	5282
236.6042	5291
236.62555	5312
236.6469	5312
236.66824	5282
236.68959	5249
236.71094	5303
236.73228	5317
236.75365	5328
236.77499	5381
236.79634	5448
236.81769	5438
236.83904	5413
236.86038	5375
236.88173	5409
236.90308	5452
236.92442	5454
236.94577	5512
236.96712	5521
236.98846	5528
237.00981	5547
237.03116	5551
237.05251	5566
237.07384	5540
237.09518	5525
237.11653	5584
237.13788	5548
237.15923	5532
237.18057	5544
237.20192	5556
237.22325	5570
237.2446	5544
237.26595	5526
237.28729	5480
237.30864	5510
237.32997	5562
237.35132	5576
237.37267	5540
237.39401	5549
237.41534	5601
237.43669	5603
237.45804	5623
237.47937	5625
237.50072	5666
237.52206	5656
237.5434	5665
237.56474	5680
237.58609	5686
237.60742	5660
237.62877	5699
237.65012	5677
237.67145	5612
237.69279	5684
237.71413	5703
237.73547	5669
237.75681	5679
237.77815	5692
237.79948	5679
237.82083	5662
237.84216	5669
237.86351	5703
237.88484	5719
237.90619	5749
237.92752	5782
237.94887	5769
237.9702	5788
237.99153	5786
238.01288	5738
238.03421	5729
238.05556	5730
238.07689	5805
238.09822	5754
238.11957	5810
238.1409	5755
238.16223	5751
238.18358	5774
238.20491	5814
238.22624	5849
238.24757	5894
238.26892	5869
238.29025	5892
238.31158	5864
238.33292	5873
238.35425	5892
238.3756	5904
238.39693	5948
238.41826	5992
238.43959	5960
238.46092	5943
238.48225	5964
238.5036	5992
238.52493	6026
238.54626	6028
238.5676	6055
238.58893	6054
238.61026	6025
238.63159	6035
238.65292	6055
238.67426	6045
238.69559	6045
238.71692	6032
238.73825	6005
238.75958	6005
238.78091	6032
238.80225	6080
238.82358	6111
238.84491	6054
238.86624	6063
238.88757	6073
238.90891	6129
238.93022	6165
238.95155	6158
238.97289	6127
238.99422	6107
239.01555	6125
239.03688	6124
239.0582	6159
239.07953	6179
239.10086	6141
239.12219	6108
239.14352	6149
239.16484	6171
239.18617	6145
239.2075	6141
239.22882	6071
239.25015	6098
239.27148	6055
239.2928	6086
239.31413	6066
239.33546	6121
239.35678	6134
239.37811	6099
239.39944	6129
239.42076	6161
239.44209	6167
239.46341	6100
239.48474	6155
239.50607	6137
239.52739	6151
239.54872	6212
239.57004	6173
239.59137	6189
239.61269	6194
239.63402	6181
239.65533	6190
239.67667	6259
239.69798	6260
239.7193	6279
239.74063	6253
239.76195	6240
239.78328	6259
239.8046	6253
239.82591	6296
239.84724	6307
239.86856	6350
239.88989	6306
239.91121	6295
239.93253	6320
239.95384	6306
239.97517	6390
239.99649	6366
240.01781	6354
240.03914	6401
240.06046	6386
240.08177	6411
240.10309	6390
240.1244	6418
240.14574	6428
240.16705	6435
240.18837	6487
240.20969	6441
240.231	6410
240.25232	6441
240.27365	6438
240.29497	6465
240.31628	6470
240.3376	6502
240.35892	6537
240.38023	6566
240.40155	6609
240.42287	6606
240.44418	6605
240.4655	6621
240.48682	6618
240.50813	6637
240.52945	6596
240.55077	6569
240.57208	6635
240.5934	6674
240.61472	6663
240.63603	6722
240.65735	6630
240.67865	6658
240.69997	6646
240.72128	6670
240.7426	6645
240.76392	6737
240.78523	6804
240.80655	6802
240.82785	6813
240.84917	6797
240.87048	6803
240.8918	6825
240.9131	6854
240.93442	6910
240.95573	6917
240.97705	6920
240.99835	6839
241.01967	6876
241.04099	6885
241.06229	6857
241.0836	6867
241.10492	6944
241.12622	6988
241.14754	6990
241.16884	6990
241.19016	6966
241.21147	6932
241.23277	6928
241.25409	6983
241.27539	7023
241.29671	7087
241.31801	7058
241.33932	7082
241.36063	7044
241.38194	7068
241.40324	7047
241.42456	7077
241.44586	7150
241.46718	7147
241.48848	7134
241.50978	7050
241.5311	7112
241.5524	7084
241.57372	7086
241.59502	7123
241.61632	7119
241.63763	7107
241.65894	7133
241.68024	7118
241.70155	7141
241.72285	7155
241.74416	7176
241.76546	7208
241.78677	7246
241.80807	7268
241.82938	7306
241.85068	7337
241.87199	7305
241.8933	7319
241.9146	7257
241.9359	7252
241.9572	7294
241.9785	7291
241.9998	7252
242.02112	7273
242.04242	7287
242.06372	7327
242.08502	7341
242.10632	7321
242.12762	7291
242.14893	7271
242.17023	7347
242.19153	7343
242.21283	7438
242.23413	7454
242.25543	7529
242.27673	7466
242.29803	7481
242.31934	7542
242.34064	7545
242.36194	7486
242.38324	7480
242.40453	7500
242.42583	7511
242.44713	7564
242.46843	7531
242.48973	7530
242.51103	7556
242.53232	7589
242.55362	7622
242.57492	7685
242.59622	7754
242.61752	7732
242.63881	7762
242.66011	7699
242.68141	7736
242.70271	7750
242.724	7837
242.7453	7895
242.7666	7948
242.78789	7899
242.80919	7953
242.83049	7909
242.85178	7976
242.87308	8019
242.89436	7958
242.91566	7973
242.93697	7962
242.95825	7923
242.97955	7908
243.00084	7928
243.02214	7932
243.04343	7928
243.06473	7877
243.08601	7885
243.10732	7921
243.1286	7909
243.1499	7920
243.17119	7923
243.19247	7903
243.21378	8019
243.23506	8064
243.25636	8084
243.27765	8085
243.29893	8074
243.32024	8117
243.34152	8080
243.36281	8092
243.38411	8053
243.4054	8074
243.42668	8085
243.44798	7985
243.46927	8011
243.49055	8042
243.51184	8067
243.53313	8032
243.55443	8058
243.57571	8063
243.597	8078
243.61829	8056
243.63957	8026
243.66087	7962
243.68216	8014
243.70345	8010
243.72473	8059
243.74602	8107
243.7673	8124
243.78859	8084
243.80988	8040
243.83116	8055
243.85245	8101
243.87373	8126
243.89502	8127
243.91631	8126
243.93759	8166
243.95888	8118
243.98016	8089
244.00145	8215
244.02274	8254
244.04402	8259
244.06531	8240
244.08659	8273
244.10788	8196
244.12917	8243
244.15044	8266
244.17172	8258
244.19301	8280
244.21429	8356
244.23558	8318
244.25685	8385
244.27814	8426
244.29942	8419
244.32071	8423
244.34198	8466
244.36327	8400
244.38455	8465
244.40584	8449
244.42711	8515
244.44839	8508
244.46968	8505
244.49095	8458
244.51224	8412
244.53352	8416
244.55479	8426
244.57608	8457
244.59735	8521
244.61864	8530
244.63991	8480
244.66119	8529
244.68248	8536
244.70375	8542
244.72504	8550
244.74631	8569
244.76759	8530
244.78886	8577
244.81013	8569
244.83142	8541
244.85269	8552
244.87398	8626
244.89525	8627
244.91653	8576
244.93781	8523
244.95908	8624
244.98036	8661
245.00163	8658
245.0229	8601
245.04419	8611
245.06546	8574
245.08673	8522
245.10802	8480
245.12929	8543
245.15056	8538
245.17183	8528
245.19312	8593
245.21439	8602
245.23566	8588
245.25693	8553
245.2782	8564
245.29947	8540
245.32076	8549
245.34203	8631
245.3633	8684
245.38457	8714
245.40584	8732
245.42711	8681
245.44838	8739
245.46965	8786
245.49092	8768
245.51219	8804
245.53346	8833
245.55473	8879
245.576	8837
245.59727	8768
245.61855	8728
245.63982	8796
245.66109	8816
245.68236	8809
245.70363	8917
245.7249	8926
245.74617	8966
245.76744	8989
245.78871	8977
245.80997	8963
245.83124	9026
245.85251	9027
245.87378	9091
245.89505	9132
245.91631	9142
245.93758	9137
245.95885	9079
245.98012	9113
246.00139	9083
246.02264	9131
246.04391	9212
246.06519	9202
246.08644	9134
246.10771	9155
246.12898	9168
246.15024	9213
246.17151	9197
246.19278	9232
246.21404	9293
246.23531	9368
246.25656	9364
246.27783	9388
246.29909	9300
246.32036	9387
246.34161	9381
246.36288	9442
246.38414	9507
246.40541	9575
246.42667	9517
246.44794	9493
246.46919	9489
246.49046	9444
246.51172	9411
246.53299	9448
246.55424	9476
246.5755	9540
246.59677	9593
246.61803	9608
246.63928	9636
246.66055	9679
246.68181	9694
246.70306	9742
246.72433	9784
246.74559	9817
246.76685	9783
246.78812	9779
246.80937	9802
246.83063	9866
246.85188	9838
246.87314	9864
246.89441	9969
246.91566	10071
246.93692	10072
246.95818	10078
246.97943	10040
247.00069	10087
247.02194	10149
247.0432	10231
247.06447	10331
247.08572	10413
247.10698	10412
247.12823	10511
247.14949	10459
247.17075	10504
247.192	10455
247.21326	10466
247.23451	10519
247.25577	10584
247.27702	10531
247.29828	10516
247.31953	10546
247.34077	10577
247.36203	10535
247.38329	10515
247.40454	10487
247.4258	10472
247.44705	10537
247.46831	10546
247.48955	10604
247.5108	10601
247.53206	10564
247.55331	10699
247.57457	10740
247.59581	10710
247.61707	10688
247.63832	10737
247.65956	10717
247.68082	10703
247.70207	10670
247.72333	10683
247.74457	10662
247.76582	10662
247.78706	10585
247.80832	10569
247.82957	10575
247.85081	10583
247.87207	10595
247.89331	10572
247.91457	10508
247.93582	10474
247.95706	10480
247.97832	10466
247.99956	10506
248.02081	10607
248.04205	10609
248.06329	10646
248.08455	10610
248.10579	10599
248.12704	10568
248.14828	10521
248.16954	10484
248.19078	10543
248.21202	10478
248.23328	10522
248.25452	10510
248.27576	10455
248.29701	10463
248.31825	10516
248.33949	10584
248.36073	10648
248.38199	10657
248.40323	10674
248.42447	10576
248.44571	10545
248.46696	10591
248.4882	10625
248.50945	10703
248.53069	10831
248.55193	10798
248.57317	10752
248.59442	10783
248.61566	10825
248.6369	10735
248.65814	10739
248.67938	10810
248.70062	10844
248.72186	10762
248.7431	10751
248.76434	10722
248.78558	10735
248.80682	10680
248.82806	10558
248.8493	10632
248.87054	10678
248.89178	10723
248.91302	10786
248.93427	10768
248.95551	10703
248.97675	10736
248.99797	10823
249.01921	10903
249.04045	10866
249.06169	10888
249.08293	10904
249.10417	10905
249.1254	10872
249.14664	10838
249.16788	10846
249.18912	10886
249.21034	10844
249.23158	10804
249.25282	10783
249.27406	10850
249.29529	10808
249.31653	10771
249.33777	10790
249.35899	10873
249.38023	10886
249.40146	10836
249.4227	10753
249.44394	10776
249.46516	10790
249.4864	10812
249.50763	10865
249.52887	10917
249.55009	10886
249.57133	10771
249.59256	10746
249.6138	10754
249.63503	10804
249.65627	10840
249.67749	10887
249.69873	10922
249.71996	10920
249.74118	10907
249.76242	10949
249.78365	10999
249.80489	11035
249.82611	11011
249.84734	11044
249.86858	10988
249.8898	10965
249.91103	10961
249.93225	10955
249.95349	11055
249.97472	11156
249.99594	11199
250.01717	11131
250.03841	11161
250.05963	11237
250.08086	11324
250.10208	11261
250.12331	11239
250.14453	11250
250.16577	11210
250.187	11216
250.20822	11296
250.22945	11361
250.25067	11383
250.2719	11253
250.29312	11240
250.31435	11188
250.33557	11210
250.3568	11263
250.37802	11375
250.39925	11369
250.42047	11319
250.4417	11447
250.46292	11469
250.48415	11454
250.50537	11464
250.5266	11463
250.54782	11452
250.56903	11479
250.59026	11455
250.61148	11482
250.63271	11518
250.65393	11539
250.67516	11489
250.69637	11514
250.71759	11608
250.73882	11607
250.76004	11667
250.78125	11634
250.80247	11640
250.8237	11634
250.84491	11589
250.86613	11454
250.88736	11430
250.90857	11453
250.92979	11416
250.95102	11482
250.97223	11557
250.99345	11528
251.01468	11491
251.03589	11399
251.05711	11399
251.07832	11429
251.09955	11485
251.12076	11519
251.14198	11640
251.16319	11709
251.18442	11586
251.20563	11544
251.22685	11668
251.24806	11712
251.26927	11746
251.2905	11795
251.31171	11835
251.33293	11797
251.35414	11732
251.37535	11678
251.39658	11631
251.41779	11671
251.439	11707
251.46022	11811
251.48143	11910
251.50264	11968
251.52385	12002
251.54507	11980
251.56628	11970
251.58749	12030
251.6087	12153
251.62991	12203
251.65114	12308
251.67235	12316
251.69356	12334
251.71477	12233
251.73598	12280
251.75719	12292
251.7784	12283
251.79961	12310
251.82082	12319
251.84203	12313
251.86324	12353
251.88446	12331
251.90567	12339
251.92688	12331
251.94807	12367
251.96928	12429
251.99049	12458
252.0117	12495
252.03291	12345
252.05412	12381
252.07533	12376
252.09654	12477
252.11775	12468
252.13896	12581
252.16016	12650
252.18137	12716
252.20258	12645
252.22379	12535
252.245	12493
252.26619	12458
252.2874	12454
252.30861	12540
252.32982	12647
252.35101	12676
252.37222	12597
252.39343	12599
252.41463	12657
252.43584	12597
252.45705	12654
252.47824	12687
252.49945	12718
252.52066	12765
252.54185	12766
252.56306	12803
252.58426	12714
252.60547	12718
252.62666	12664
252.64787	12728
252.66907	12847
252.69028	12961
252.71147	13013
252.73268	12947
252.75388	12861
252.77509	12877
252.79628	12966
252.81747	13052
252.83868	13129
252.85988	13241
252.88109	13156
252.90228	13197
252.92348	13280
252.94469	13316
252.96588	13280
252.98708	13364
253.00827	13414
253.02948	13378
253.05067	13328
253.07187	13292
253.09306	13340
253.11427	13329
253.13547	13315
253.15666	13279
253.17786	13251
253.19905	13215
253.22025	13257
253.24146	13245
253.26265	13301
253.28384	13325
253.30504	13413
253.32623	13485
253.34743	13523
253.36862	13507
253.38982	13538
253.41101	13557
253.43221	13586
253.4534	13576
253.47459	13504
253.49579	13508
253.51698	13568
253.53818	13510
253.55937	13418
253.58057	13396
253.60176	13480
253.62294	13470
253.64413	13446
253.66533	13402
253.68652	13411
253.70772	13344
253.72891	13373
253.75009	13402
253.77129	13454
253.79248	13549
253.81367	13610
253.83485	13564
253.85605	13626
253.87724	13619
253.89842	13586
253.91962	13567
253.94081	13601
253.96199	13712
253.98318	13773
254.00438	13809
254.02556	13813
254.04675	13772
254.06793	13815
254.08913	13882
254.11032	14070
254.1315	14117
254.15269	14190
254.17387	14162
254.19507	14045
254.21625	13994
254.23744	14004
254.25862	14059
254.2798	14231
254.30099	14336
254.32217	14398
254.34337	14312
254.36455	14450
254.38573	14491
254.40692	14325
254.4281	14434
254.44928	14342
254.47047	14378
254.49165	14270
254.51283	14327
254.53401	14257
254.55521	14260
254.57639	14254
254.59756	14248
254.61874	14313
254.63994	14438
254.66112	14479
254.6823	14479
254.70348	14462
254.72466	14468
254.74583	14526
254.76701	14677
254.78821	14780
254.80939	14758
254.83057	14751
254.85175	14760
254.87292	14956
254.8941	14834
254.91528	14790
254.93646	14846
254.95764	14789
254.97882	14736
255	14814
255.02118	14896
255.04234	14866
255.06352	14963
255.0847	15079
255.10588	15195
255.12706	15291
255.14824	15157
255.16942	15068
255.1906	15027
255.21176	15073
255.23294	15087
255.25412	15244
255.2753	15245
255.29646	15321
255.31764	15259
255.33882	15246
255.36	15158
255.38116	15245
255.40234	15267
255.42352	15353
255.44469	15475
255.46587	15552
255.48703	15523
255.50821	15454
255.52939	15486
255.55055	15573
255.57173	15609
255.5929	15650
255.61407	15667
255.63524	15643
255.65642	15677
255.67758	15611
255.69876	15593
255.71992	15643
255.7411	15615
255.76227	15712
255.78345	15835
255.80461	15850
255.82578	15915
255.84695	15997
255.86812	15936
255.88928	16071
255.91046	16093
255.93163	16134
255.95279	16218
255.97397	16239
255.99513	16246
256.0163	16113
256.03748	16167
256.05862	16171
256.0798	16261
256.10098	16287
256.12213	16327
256.14331	16386
256.16446	16412
256.18564	16364
256.20679	16317
256.22797	16436
256.24915	16452
256.27029	16586
256.29147	16509
256.31262	16537
256.3338	16465
256.35495	16491
256.37613	16493
256.39728	16618
256.41846	16657
256.43961	16622
256.46078	16604
256.48193	16724
256.50311	16807
256.52426	16756
256.54541	16686
256.56659	16596
256.58774	16561
256.60892	16340
256.63007	16277
256.65125	16180
256.67239	16176
256.69354	16184
256.71472	16247
256.73587	16333
256.75705	16366
256.7782	16385
256.79935	16421
256.82053	16428
256.84167	16353
256.86282	16402
256.884	16590
256.90515	16717
256.9263	16745
256.94748	16737
256.96863	16761
256.98978	16933
257.01093	17019
257.0321	17033
257.05325	17091
257.0744	17083
257.09558	17091
257.11673	16955
257.13788	16842
257.15903	16834
257.18021	16839
257.20135	16912
257.2225	17075
257.24365	17308
257.2648	17380
257.28598	17248
257.30713	17183
257.32828	17220
257.34943	17352
257.37057	17558
257.39172	17600
257.4129	17787
257.43405	17813
257.4552	17836
257.47635	17790
257.4975	17749
257.51865	17720
257.53979	17778
257.56094	17801
257.58212	17872
257.60327	17859
257.62442	17844
257.64557	17907
257.66672	17914
257.68787	17932
