Date and Time:                Sun Jan 29 16:21:46.000 2023
Software Version:             4.31.30023.0
Temperature (C):              -40
Model:                        DU940P_BU2
Data Type:                    Counts
Acquisition Mode:             Single Scan
Trigger Mode:                 Internal
Exposure Time (secs):         40
Readout Mode:                 Full Vertical Binning
Horizontal binning:           1
Extended Dynamic Range:       off
Horizontally flipped:         false
Vertical Shift Speed (usecs): 14.51
Pixel Readout Rate (MHz):     3
Baseline Clamp:               ON
Clock Amplitude:              Normal
Output Amplifier:             High Capacity
Serial Number:                23634
Pre-Amplifier Gain:           1.000000
Spurious Noise Filter Mode:   No Filter
Photon counted:               false
Data Averaging Filter Mode:   No Filter
SR500i:
Serial Number:                
Wavelength (nm):              310
Grating Groove Density (l/mm):1199.47
Grating Blaze:                500
Output Flipper Port:          Direct
Accessory Output Port 1:      Off
Accessory Output Port 2:      Off
Accessory Output Port 3:      Off
Accessory Input Port:         On



288.51233	6779
288.53345	6445
288.55453	6369
288.57565	6335
288.59677	6378
288.61786	6393
288.63898	6370
288.6601	6318
288.68118	6272
288.7023	6247
288.72342	6253
288.74454	6183
288.76563	6101
288.78674	6134
288.80783	6152
288.82895	6126
288.85007	6171
288.87115	6190
288.89227	6218
288.91339	6231
288.93448	6158
288.9556	6226
288.97668	6250
288.9978	6239
289.01892	6236
289.04001	6250
289.06113	6251
289.08221	6279
289.10333	6344
289.12442	6313
289.14554	6424
289.16666	6448
289.18774	6491
289.20886	6483
289.22995	6460
289.25107	6531
289.27216	6593
289.29327	6640
289.31436	6686
289.33548	6678
289.35657	6705
289.37769	6691
289.39877	6675
289.41989	6712
289.44098	6778
289.46207	6774
289.48318	6849
289.50427	6855
289.52539	6828
289.54648	6783
289.5676	6805
289.58868	6790
289.60977	6785
289.63089	6805
289.65198	6822
289.6731	6784
289.69418	6709
289.71527	6747
289.73639	6712
289.75748	6690
289.77859	6654
289.79968	6615
289.82077	6579
289.84189	6545
289.86298	6513
289.88406	6431
289.90518	6325
289.92627	6294
289.94736	6207
289.96848	6105
289.98956	6020
290.01065	5971
290.03174	5921
290.05286	5849
290.07394	5784
290.09503	5757
290.11612	5700
290.13724	5671
290.15833	5598
290.17941	5538
290.2005	5515
290.22162	5523
290.24271	5513
290.26379	5472
290.28488	5450
290.30597	5411
290.32709	5389
290.34818	5320
290.36926	5253
290.39035	5227
290.41144	5190
290.43256	5193
290.45364	5163
290.47473	5119
290.49582	5095
290.51691	5038
290.53799	5058
290.55908	5044
290.5802	5031
290.60129	5087
290.62238	5108
290.64346	5031
290.66455	5028
290.68564	5071
290.70673	5099
290.72781	5148
290.7489	5178
290.76999	5196
290.79108	5225
290.81216	5218
290.83325	5248
290.85434	5247
290.87546	5275
290.89655	5287
290.91763	5364
290.93872	5383
290.95981	5367
290.9809	5371
291.00198	5403
291.02307	5468
291.04413	5471
291.06522	5508
291.0863	5541
291.10739	5541
291.12848	5585
291.14957	5651
291.17065	5652
291.19174	5735
291.21283	5812
291.23392	5914
291.255	5938
291.27609	5996
291.29718	6080
291.31827	6166
291.33936	6177
291.36041	6166
291.3815	6275
291.40259	6293
291.42368	6348
291.44476	6385
291.46585	6417
291.48694	6489
291.508	6550
291.52908	6581
291.55017	6616
291.57126	6660
291.59235	6704
291.6134	6739
291.63449	6845
291.65558	6831
291.67667	6865
291.69775	6953
291.71881	7047
291.7399	7052
291.76099	7136
291.78207	7093
291.80313	7014
291.82422	6981
291.84531	7044
291.86639	7033
291.88745	7064
291.90854	6965
291.92963	6949
291.95068	6967
291.97177	6940
291.99286	6988
292.01392	7013
292.035	7033
292.05609	6959
292.07715	6932
292.09824	6885
292.11932	6836
292.14038	6888
292.16147	6870
292.18256	6870
292.20361	6953
292.2247	6856
292.24579	6839
292.26685	6818
292.28793	6817
292.30899	6770
292.33008	6720
292.35114	6721
292.37222	6663
292.39331	6634
292.41437	6610
292.43546	6577
292.45651	6605
292.4776	6542
292.49866	6431
292.51974	6450
292.5408	6453
292.56189	6475
292.58295	6479
292.60403	6465
292.62509	6476
292.64618	6498
292.66724	6591
292.68832	6615
292.70938	6631
292.73047	6671
292.75153	6673
292.77261	6656
292.79367	6715
292.81476	6764
292.83582	6755
292.85687	6779
292.87796	6778
292.89902	6713
292.9201	6786
292.94116	6816
292.96222	6872
292.98331	6927
293.00436	6947
293.02542	6980
293.04651	6971
293.06757	6947
293.08865	6979
293.10971	7043
293.13077	7066
293.15186	7128
293.17291	7219
293.19397	7263
293.21503	7218
293.23611	7217
293.25717	7235
293.27823	7232
293.29932	7278
293.32037	7356
293.34143	7339
293.36249	7382
293.38358	7391
293.40463	7392
293.42569	7497
293.44675	7510
293.46783	7495
293.48889	7536
293.50995	7546
293.53101	7535
293.55209	7533
293.57315	7515
293.59421	7533
293.61526	7562
293.63632	7556
293.65738	7517
293.67847	7528
293.69952	7519
293.72058	7552
293.74164	7518
293.7627	7583
293.78375	7489
293.80481	7467
293.8259	7411
293.84695	7363
293.86801	7384
293.88907	7397
293.91013	7249
293.93118	7205
293.95224	7137
293.9733	7098
293.99435	7115
294.01541	7212
294.03647	7179
294.05753	7113
294.07858	7103
294.09964	7113
294.1207	7126
294.14175	7125
294.16284	7033
294.1839	7034
294.20496	7003
294.22598	6984
294.24704	6935
294.2681	6899
294.28915	6932
294.31021	6875
294.33127	6895
294.35233	6939
294.37338	6959
294.39444	6939
294.4155	6899
294.43655	6759
294.45761	6765
294.47867	6764
294.49973	6752
294.52078	6798
294.54184	6766
294.56287	6771
294.58392	6827
294.60498	6824
294.62604	6913
294.64709	6940
294.66815	6925
294.68921	6930
294.71024	6956
294.73129	6960
294.75235	6967
294.77341	7030
294.79446	7086
294.81552	7118
294.83655	7114
294.8576	7105
294.87866	7183
294.89972	7306
294.92075	7365
294.9418	7397
294.96286	7342
294.98392	7396
295.00494	7399
295.026	7480
295.04706	7521
295.06812	7552
295.08914	7563
295.1102	7611
295.13126	7612
295.15228	7696
295.17334	7701
295.1944	7744
295.21545	7757
295.23648	7797
295.25754	7836
295.27859	7854
295.29962	7896
295.32068	7943
295.34171	7978
295.36276	7967
295.38382	7942
295.40485	7972
295.4259	7960
295.44696	7887
295.46799	7871
295.48904	7897
295.51007	7988
295.53113	8001
295.55215	8032
295.57321	8090
295.59427	8060
295.6153	8118
295.63635	8122
295.65738	8114
295.67844	8077
295.69946	8021
295.72052	8065
295.74155	8026
295.7626	8000
295.78363	8045
295.80469	8035
295.82571	8014
295.84677	7990
295.8678	7927
295.88885	7957
295.90988	7905
295.93091	7935
295.95197	7983
295.97299	8040
295.99405	8134
296.01508	8095
296.03613	8101
296.05716	8040
296.07819	8078
296.09924	8043
296.12027	8105
296.14133	8104
296.16235	8087
296.18338	8092
296.20444	8076
296.22546	8040
296.24649	7997
296.26755	8040
296.28857	8145
296.3096	8235
296.33066	8211
296.35168	8254
296.37271	8199
296.39377	8179
296.41479	8217
296.43582	8314
296.45685	8364
296.47791	8429
296.49893	8562
296.51996	8515
296.54102	8532
296.56204	8534
296.58307	8565
296.6041	8639
296.62512	8698
296.64618	8737
296.66721	8798
296.68823	8714
296.70926	8760
296.73029	8787
296.75134	8797
296.77237	8816
296.7934	8827
296.81442	8871
296.83545	8814
296.85648	8894
296.87753	8952
296.89856	9024
296.91959	8991
296.94061	9098
296.96164	9166
296.98267	9233
297.00369	9317
297.02472	9248
297.04575	9330
297.0668	9345
297.08783	9193
297.10886	9204
297.12988	9212
297.15091	9202
297.17194	9166
297.19296	9115
297.21399	9139
297.23502	9175
297.25604	9177
297.27707	9164
297.2981	9120
297.31912	9129
297.34015	9047
297.36118	8966
297.3822	9040
297.40323	9037
297.42426	9058
297.44528	9008
297.46631	8969
297.48734	8988
297.50836	8886
297.52939	8785
297.55038	8669
297.57141	8672
297.59244	8673
297.61346	8615
297.63449	8610
297.65552	8539
297.67654	8451
297.69757	8416
297.7186	8482
297.73959	8420
297.76062	8448
297.78165	8349
297.80267	8316
297.8237	8290
297.84473	8213
297.86572	8255
297.88675	8262
297.90778	8290
297.9288	8366
297.94983	8292
297.97083	8247
297.99185	8254
298.01288	8245
298.03391	8242
298.0549	8205
298.07593	8184
298.09695	8098
298.11798	8099
298.13898	8035
298.16	8050
298.18103	8029
298.20206	8006
298.22305	7934
298.24408	7932
298.26511	7967
298.2861	8015
298.30713	8074
298.32816	8048
298.34915	8046
298.37018	8101
298.3912	8177
298.4122	8272
298.43323	8252
298.45422	8264
298.47525	8301
298.49628	8350
298.51727	8407
298.5383	8361
298.55933	8413
298.58032	8465
298.60135	8494
298.62234	8452
298.64337	8548
298.66437	8647
298.68539	8669
298.70639	8779
298.72742	8773
298.74841	8832
298.76944	8891
298.79047	8839
298.81146	8829
298.83249	8863
298.85349	8957
298.87448	9040
298.89551	9173
298.9165	9319
298.93753	9264
298.95853	9201
298.97955	9333
299.00055	9338
299.02158	9457
299.04257	9562
299.0636	9632
299.08459	9703
299.10559	9715
299.12662	9724
299.14761	9843
299.16864	9974
299.18964	10058
299.21063	10081
299.23166	10115
299.25266	10165
299.27365	10136
299.29468	10109
299.31567	10208
299.33667	10239
299.3577	10254
299.37869	10313
299.39969	10414
299.42072	10451
299.44171	10475
299.46271	10460
299.4837	10486
299.50473	10485
299.52573	10502
299.54672	10454
299.56775	10486
299.58875	10526
299.60974	10500
299.63074	10460
299.65173	10404
299.67276	10312
299.69376	10268
299.71475	10285
299.73575	10289
299.75674	10338
299.77777	10253
299.79877	10142
299.81976	10063
299.84076	10105
299.86176	10039
299.88275	10031
299.90378	9988
299.92477	9966
299.94577	9882
299.96677	9743
299.98776	9757
300.00876	9781
300.02975	9727
300.05075	9674
300.07175	9631
300.09277	9637
300.11377	9624
300.13477	9586
300.15576	9555
300.17676	9440
300.19775	9385
300.21875	9249
300.23975	9258
300.26074	9195
300.28174	9061
300.30273	9092
300.32373	9132
300.34473	9093
300.36572	9136
300.38672	9044
300.40771	9007
300.42871	9007
300.44971	9054
300.4707	9100
300.4917	9122
300.5127	9285
300.53369	9210
300.55466	9124
300.57565	9119
300.59665	9172
300.61765	9213
300.63864	9229
300.65964	9254
300.68063	9234
300.70163	9201
300.72263	9100
300.74359	9047
300.76459	9073
300.78558	9050
300.80658	9085
300.82758	9193
300.84857	9289
300.86954	9330
300.89053	9200
300.91153	9258
300.93253	9243
300.95352	9300
300.97449	9321
300.99548	9343
301.01648	9425
301.03748	9371
301.05844	9402
301.07944	9413
301.10043	9357
301.12143	9275
301.1424	9279
301.16339	9268
301.18439	9226
301.20535	9250
301.22635	9125
301.24734	9119
301.26831	9144
301.28931	9083
301.3103	9079
301.33127	9141
301.35226	9128
301.37326	9036
301.39423	9035
301.41522	8972
301.43622	8988
301.45718	8964
301.47818	8965
301.49915	8982
301.52014	8934
301.54114	8889
301.5621	8781
301.5831	8720
301.60406	8614
301.62506	8584
301.64603	8579
301.66702	8527
301.68802	8590
301.70898	8530
301.72998	8523
301.75095	8520
301.77194	8471
301.79291	8475
301.8139	8389
301.83487	8393
301.85587	8380
301.87683	8295
301.8978	8272
301.91879	8209
301.93976	8220
301.96075	8204
301.98172	8160
302.00272	8221
302.02368	8230
302.04465	8211
302.06564	8153
302.08661	8114
302.1076	8090
302.12857	8146
302.14954	8181
302.17053	8235
302.1915	8228
302.21249	8261
302.23346	8280
302.25443	8245
302.27542	8246
302.29639	8256
302.31735	8225
302.33835	8242
302.35931	8244
302.38028	8266
302.40125	8291
302.42224	8299
302.44321	8290
302.46417	8287
302.48514	8255
302.50613	8236
302.5271	8304
302.54807	8270
302.56903	8362
302.59003	8435
302.61099	8419
302.63196	8488
302.65292	8582
302.67389	8663
302.69489	8741
302.71585	8784
302.73682	8961
302.75778	8983
302.77875	8994
302.79974	9030
302.82071	9121
302.84167	9217
302.86264	9286
302.88361	9314
302.90457	9336
302.92554	9420
302.9465	9538
302.96747	9536
302.98846	9627
303.00943	9709
303.0304	9825
303.05136	9859
303.07233	9909
303.09329	10074
303.11426	10204
303.13522	10329
303.15619	10386
303.17715	10515
303.19812	10619
303.21909	10689
303.24005	10695
303.26102	10802
303.28198	10827
303.30295	10925
303.32391	11068
303.34488	11157
303.36584	11229
303.38681	11284
303.40778	11350
303.42874	11446
303.44971	11584
303.47064	11620
303.49161	11706
303.51257	11791
303.53354	11781
303.5545	11805
303.57547	11827
303.59644	11978
303.6174	12135
303.63837	12178
303.6593	12174
303.68027	12198
303.70123	12185
303.7222	12179
303.74316	12179
303.76413	12180
303.78506	12217
303.80603	12110
303.827	12114
303.84796	12072
303.86893	12046
303.88986	11891
303.91083	11744
303.93179	11702
303.95276	11760
303.97369	11799
303.99466	11815
304.01563	11789
304.03656	11716
304.05753	11603
304.07849	11661
304.09946	11674
304.12039	11519
304.14136	11485
304.16232	11430
304.18326	11332
304.20422	11330
304.22519	11192
304.24612	11157
304.26709	11097
304.28806	10962
304.30899	10836
304.32996	10822
304.35089	10824
304.37186	10798
304.39282	10640
304.41376	10671
304.43472	10591
304.45566	10562
304.47662	10383
304.49756	10259
304.51852	10196
304.53949	10216
304.56042	10133
304.58139	10109
304.60233	10135
304.62329	10114
304.64423	10031
304.66519	9952
304.68613	9949
304.70709	9907
304.72803	9884
304.74899	9909
304.76993	10004
304.79086	9951
304.81183	9894
304.83276	9899
304.85373	10011
304.87466	10009
304.89563	10021
304.91656	9965
304.9375	9934
304.95847	9943
304.9794	9885
305.00037	9877
305.0213	9881
305.04224	9975
305.0632	9965
305.08414	9951
305.10507	10018
305.12604	10104
305.14697	10182
305.16791	10127
305.18887	10115
305.20981	10180
305.23074	10175
305.25171	10185
305.27264	10345
305.29358	10398
305.31451	10450
305.33548	10418
305.35641	10425
305.37735	10383
305.39828	10460
305.41925	10527
305.44019	10555
305.46112	10670
305.48206	10661
305.50299	10715
305.52396	10801
305.54489	10877
305.56583	10940
305.58676	10994
305.6077	10990
305.62866	11006
305.6496	11046
305.67053	11085
305.69147	11184
305.7124	11192
305.73334	11275
305.75427	11299
305.77521	11437
305.79617	11552
305.81711	11657
305.83804	11736
305.85898	11730
305.87991	11757
305.90085	11813
305.92178	11776
305.94272	11779
305.96365	11739
305.98459	11762
306.00552	11867
306.02646	11987
306.04739	12097
306.06833	12142
306.08926	12100
306.1102	12172
306.13113	12143
306.15207	12317
306.173	12478
306.19394	12626
306.21487	12822
306.23581	12758
306.25674	12788
306.27768	12902
306.29861	12960
306.31952	13040
306.34045	13135
306.36139	13227
306.38232	13292
306.40326	13241
306.42419	13150
306.44513	13095
306.46606	13084
306.48697	13183
306.5079	13333
306.52884	13583
306.54977	13632
306.57071	13642
306.59164	13531
306.61255	13574
306.63348	13687
306.65442	13861
306.67535	13914
306.69629	14031
306.71719	14045
306.73813	14016
306.75906	13992
306.78	13935
306.8009	13974
306.82184	13895
306.84277	13895
306.86368	13828
306.88461	13810
306.90555	13787
306.92648	13720
306.94739	13690
306.96832	13687
306.98926	13674
307.01016	13662
307.0311	13609
307.05203	13605
307.07294	13483
307.09387	13394
307.11478	13344
307.13571	13409
307.15665	13397
307.17755	13499
307.19849	13515
307.21939	13469
307.24033	13421
307.26126	13261
307.28217	13105
307.3031	12938
307.32401	12836
307.34494	12903
307.36584	12933
307.38678	12847
307.40768	12751
307.42862	12797
307.44952	12635
307.47046	12518
307.49136	12430
307.5123	12332
307.5332	12319
307.55414	12230
307.57504	12222
307.59598	12119
307.61688	12037
307.63779	11906
307.65872	11807
307.67963	11775
307.70056	11849
307.72147	11822
307.7424	11684
307.76331	11609
307.78421	11493
307.80515	11473
307.82605	11455
307.84695	11479
307.86789	11395
307.88879	11488
307.9097	11349
307.93063	11254
307.95154	11236
307.97244	11261
307.99338	11255
308.01428	11210
308.03519	11171
308.05612	11156
308.07703	11041
308.09793	11020
308.11884	10941
308.13977	10855
308.16068	10769
308.18158	10689
308.20248	10625
308.22339	10622
308.24432	10574
308.26523	10610
308.28613	10602
308.30704	10531
308.32794	10528
308.34888	10571
308.36978	10601
308.39069	10544
308.41159	10514
308.4325	10630
308.4534	10599
308.4743	10613
308.49524	10493
308.51614	10564
308.53705	10558
308.55795	10538
308.57886	10413
308.59976	10464
308.62067	10503
308.64157	10475
308.66248	10442
308.68338	10468
308.70428	10500
308.72519	10501
308.74609	10509
308.767	10477
308.7879	10537
308.80881	10644
308.82971	10648
308.85062	10722
308.87152	10762
308.89243	10737
308.91333	10703
308.93423	10727
308.95514	10678
308.97604	10670
308.99695	10630
309.01785	10733
309.03876	10668
309.05966	10636
309.08057	10625
309.10147	10628
309.12238	10700
309.14325	10748
309.16415	10877
309.18506	10892
309.20596	10817
309.22687	10845
309.24777	10793
309.26868	10846
309.28955	11012
309.31046	11174
309.33136	11223
309.35226	11368
309.37317	11449
309.39404	11510
309.41495	11487
309.43585	11501
309.45676	11544
309.47763	11583
309.49854	11586
309.51944	11596
309.54034	11672
309.56122	11761
309.58212	11816
309.60303	11742
309.62393	11854
309.64481	12045
309.66571	12118
309.68661	12207
309.70749	12237
309.72839	12202
309.7493	12249
309.77017	12444
309.79108	12594
309.81195	12572
309.83286	12585
309.85376	12678
309.87463	12813
309.89554	12864
309.91644	12706
309.93732	12762
309.95822	12833
309.9791	12901
310	12884
310.02087	12953
310.04178	13016
310.06265	13143
310.08356	13275
310.10443	13420
310.12534	13515
310.14624	13435
310.16711	13260
310.18799	13260
310.20889	13233
310.22977	13269
310.25067	13447
310.27155	13537
310.29245	13627
310.31332	13590
310.33423	13552
310.3551	13483
310.37601	13597
310.39688	13589
310.41776	13665
310.43866	13855
310.45953	13920
310.48044	13964
310.50131	13947
310.52219	13937
310.54309	14067
310.56396	14101
310.58484	14185
310.60574	14146
310.62662	14170
310.64749	14211
310.6684	14169
310.68927	14066
310.71014	14062
310.73105	14035
310.75192	14107
310.7728	14262
310.79367	14352
310.81458	14439
310.83545	14430
310.85632	14469
310.8772	14586
310.8981	14588
310.91898	14582
310.93985	14732
310.96072	14712
310.9816	14727
311.0025	14656
311.02338	14662
311.04425	14797
311.06512	14755
311.086	14746
311.10687	14731
311.12775	14693
311.14865	14735
311.16953	14711
311.1904	14624
311.21127	14650
311.23215	14677
311.25302	14799
311.2739	14762
311.29477	14708
311.31564	14552
311.33652	14569
311.35739	14551
311.3783	14722
311.39917	14699
311.42004	14647
311.44092	14703
311.46179	14704
311.48267	14701
311.50354	14690
311.52441	14511
311.54529	14342
311.56616	14315
311.58704	14120
311.60788	14019
311.62875	13941
311.64963	13882
311.6705	13749
311.69138	13720
311.71225	13796
311.73312	13803
311.754	13785
311.77487	13729
311.79575	13678
311.81662	13669
311.83746	13645
311.85834	13736
311.87921	13899
311.90009	13950
311.92096	13838
311.94183	13757
311.96271	13789
311.98355	13850
312.00443	13843
312.0253	13798
312.04617	13762
312.06705	13668
312.08789	13530
312.10876	13430
312.12964	13358
312.15051	13287
312.17136	13354
312.19223	13447
312.2131	13552
312.23395	13583
312.25482	13400
312.2757	13328
312.29657	13293
312.31741	13493
312.33829	13501
312.35916	13580
312.38	13667
312.40088	13654
312.42175	13610
312.4426	13574
312.46347	13493
312.48431	13451
312.50519	13401
312.52606	13388
312.54691	13427
312.56778	13470
312.58862	13429
312.6095	13511
312.63037	13436
312.65121	13485
312.67209	13428
312.69293	13440
