Date and Time:                Sun Jan 29 16:17:28.000 2023
Software Version:             4.31.30023.0
Temperature (C):              -40
Model:                        DU940P_BU2
Data Type:                    Counts
Acquisition Mode:             Single Scan
Trigger Mode:                 Internal
Exposure Time (secs):         40
Readout Mode:                 Full Vertical Binning
Horizontal binning:           1
Extended Dynamic Range:       off
Horizontally flipped:         false
Vertical Shift Speed (usecs): 14.51
Pixel Readout Rate (MHz):     3
Baseline Clamp:               ON
Clock Amplitude:              Normal
Output Amplifier:             High Capacity
Serial Number:                23634
Pre-Amplifier Gain:           1.000000
Spurious Noise Filter Mode:   No Filter
Photon counted:               false
Data Averaging Filter Mode:   No Filter
SR500i:
Serial Number:                
Wavelength (nm):              310
Grating Groove Density (l/mm):1199.47
Grating Blaze:                500
Output Flipper Port:          Direct
Accessory Output Port 1:      Off
Accessory Output Port 2:      Off
Accessory Output Port 3:      Off
Accessory Input Port:         On



288.51233	7115
288.53345	6758
288.55453	6736
288.57565	6693
288.59677	6695
288.61786	6743
288.63898	6674
288.6601	6643
288.68118	6592
288.7023	6546
288.72342	6481
288.74454	6357
288.76563	6308
288.78674	6285
288.80783	6289
288.82895	6250
288.85007	6224
288.87115	6171
288.89227	6199
288.91339	6143
288.93448	6042
288.9556	6074
288.97668	6051
288.9978	6036
289.01892	5932
289.04001	5962
289.06113	5922
289.08221	5884
289.10333	5850
289.12442	5839
289.14554	5855
289.16666	5874
289.18774	5838
289.20886	5847
289.22995	5809
289.25107	5808
289.27216	5828
289.29327	5848
289.31436	5877
289.33548	5907
289.35657	5882
289.37769	5860
289.39877	5846
289.41989	5833
289.44098	5890
289.46207	5928
289.48318	5954
289.50427	5994
289.52539	5991
289.54648	6016
289.5676	5991
289.58868	6014
289.60977	6059
289.63089	6123
289.65198	6171
289.6731	6127
289.69418	6176
289.71527	6192
289.73639	6221
289.75748	6268
289.77859	6306
289.79968	6332
289.82077	6365
289.84189	6356
289.86298	6395
289.88406	6406
289.90518	6381
289.92627	6395
289.94736	6354
289.96848	6306
289.98956	6289
290.01065	6270
290.03174	6249
290.05286	6245
290.07394	6230
290.09503	6249
290.11612	6208
290.13724	6200
290.15833	6176
290.17941	6172
290.2005	6100
290.22162	6170
290.24271	6154
290.26379	6161
290.28488	6113
290.30597	6099
290.32709	6039
290.34818	5986
290.36926	5884
290.39035	5863
290.41144	5796
290.43256	5783
290.45364	5707
290.47473	5646
290.49582	5588
290.51691	5523
290.53799	5472
290.55908	5462
290.5802	5427
290.60129	5444
290.62238	5375
290.64346	5282
290.66455	5278
290.68564	5244
290.70673	5199
290.72781	5217
290.7489	5193
290.76999	5192
290.79108	5141
290.81216	5088
290.83325	5096
290.85434	5037
290.87546	4994
290.89655	4966
290.91763	4987
290.93872	4984
290.95981	4926
290.9809	4903
291.00198	4860
291.02307	4840
291.04413	4803
291.06522	4782
291.0863	4809
291.10739	4782
291.12848	4729
291.14957	4755
291.17065	4721
291.19174	4766
291.21283	4778
291.23392	4799
291.255	4821
291.27609	4850
291.29718	4874
291.31827	4906
291.33936	4913
291.36041	4878
291.3815	4900
291.40259	4917
291.42368	4975
291.44476	4960
291.46585	4979
291.48694	4970
291.508	5045
291.52908	5062
291.55017	5086
291.57126	5143
291.59235	5211
291.6134	5234
291.63449	5310
291.65558	5336
291.67667	5394
291.69775	5536
291.71881	6147
291.7399	6076
291.76099	5836
291.78207	5749
291.80313	5728
291.82422	5804
291.84531	5845
291.86639	5895
291.88745	5957
291.90854	5980
291.92963	6050
291.95068	6059
291.97177	6155
291.99286	6228
292.01392	6335
292.035	6385
292.05609	6391
292.07715	6474
292.09824	6440
292.11932	6465
292.14038	6563
292.16147	6610
292.18256	6681
292.20361	6709
292.2247	6781
292.24579	6779
292.26685	6805
292.28793	6834
292.30899	6798
292.33008	6780
292.35114	6793
292.37222	6779
292.39331	6753
292.41437	6757
292.43546	6716
292.45651	6688
292.4776	6669
292.49866	6558
292.51974	6554
292.5408	6552
292.56189	6545
292.58295	6577
292.60403	6529
292.62509	6499
292.64618	6453
292.66724	6482
292.68832	6501
292.70938	6500
292.73047	6520
292.75153	6510
292.77261	6467
292.79367	6451
292.81476	6412
292.83582	6381
292.85687	6354
292.87796	6302
292.89902	6272
292.9201	6264
292.94116	6295
292.96222	6268
292.98331	6300
293.00436	6280
293.02542	6265
293.04651	6221
293.06757	6182
293.08865	6208
293.10971	6178
293.13077	6228
293.15186	6250
293.17291	6298
293.19397	6314
293.21503	6277
293.23611	6252
293.25717	6262
293.27823	6274
293.29932	6302
293.32037	6346
293.34143	6420
293.36249	6458
293.38358	6448
293.40463	6436
293.42569	6572
293.44675	6586
293.46783	6652
293.48889	6673
293.50995	6715
293.53101	6709
293.55209	6754
293.57315	6768
293.59421	6813
293.61526	6965
293.63632	6950
293.65738	6989
293.67847	6996
293.69952	7024
293.72058	7096
293.74164	7173
293.7627	7217
293.78375	7212
293.80481	7198
293.8259	7163
293.84695	7222
293.86801	7250
293.88907	7270
293.91013	7246
293.93118	7210
293.95224	7126
293.9733	7140
293.99435	7175
294.01541	7293
294.03647	7327
294.05753	7206
294.07858	7247
294.09964	7231
294.1207	7230
294.14175	7244
294.16284	7186
294.1839	7127
294.20496	7125
294.22598	7100
294.24704	7063
294.2681	6967
294.28915	7007
294.31021	6926
294.33127	6929
294.35233	6914
294.37338	6929
294.39444	6923
294.4155	6826
294.43655	6698
294.45761	6619
294.47867	6624
294.49973	6569
294.52078	6553
294.54184	6532
294.56287	6484
294.58392	6445
294.60498	6457
294.62604	6516
294.64709	6508
294.66815	6504
294.68921	6433
294.71024	6403
294.73129	6343
294.75235	6379
294.77341	6366
294.79446	6377
294.81552	6355
294.83655	6363
294.8576	6338
294.87866	6340
294.89972	6423
294.92075	6454
294.9418	6413
294.96286	6427
294.98392	6449
295.00494	6447
295.026	6483
295.04706	6484
295.06812	6504
295.08914	6503
295.1102	6514
295.13126	6517
295.15228	6543
295.17334	6590
295.1944	6593
295.21545	6618
295.23648	6674
295.25754	6694
295.27859	6710
295.29962	6833
295.32068	6801
295.34171	6842
295.36276	6913
295.38382	6901
295.40485	6886
295.4259	6889
295.44696	6886
295.46799	6896
295.48904	6976
295.51007	7067
295.53113	7103
295.55215	7134
295.57321	7218
295.59427	7267
295.6153	7274
295.63635	7373
295.65738	7351
295.67844	7377
295.69946	7363
295.72052	7377
295.74155	7402
295.7626	7425
295.78363	7465
295.80469	7507
295.82571	7489
295.84677	7493
295.8678	7495
295.88885	7467
295.90988	7483
295.93091	7495
295.95197	7563
295.97299	7644
295.99405	7727
296.01508	7719
296.03613	7692
296.05716	7673
296.07819	7674
296.09924	7678
296.12027	7664
296.14133	7741
296.16235	7699
296.18338	7656
296.20444	7621
296.22546	7594
296.24649	7530
296.26755	7583
296.28857	7642
296.3096	7629
296.33066	7710
296.35168	7647
296.37271	7572
296.39377	7521
296.41479	7522
296.43582	7593
296.45685	7585
296.47791	7622
296.49893	7644
296.51996	7668
296.54102	7593
296.56204	7621
296.58307	7576
296.6041	7567
296.62512	7594
296.64618	7639
296.66721	7594
296.68823	7568
296.70926	7539
296.73029	7581
296.75134	7557
296.77237	7509
296.7934	7510
296.81442	7590
296.83545	7568
296.85648	7555
296.87753	7630
296.89856	7615
296.91959	7645
296.94061	7695
296.96164	7829
296.98267	7888
297.00369	7913
297.02472	7903
297.04575	7978
297.0668	8007
297.08783	7991
297.10886	7959
297.12988	7972
297.15091	8006
297.17194	8054
297.19296	8074
297.21399	8091
297.23502	8200
297.25604	8234
297.27707	8303
297.2981	8332
297.31912	8371
297.34015	8350
297.36118	8371
297.3822	8493
297.40323	8590
297.42426	8644
297.44528	8690
297.46631	8710
297.48734	8768
297.50836	8747
297.52939	8682
297.55038	8675
297.57141	8727
297.59244	8741
297.61346	8800
297.63449	8748
297.65552	8756
297.67654	8749
297.69757	8784
297.7186	8797
297.73959	8794
297.76062	8854
297.78165	8867
297.80267	8834
297.8237	8773
297.84473	8749
297.86572	8736
297.88675	8810
297.90778	8856
297.9288	8835
297.94983	8779
297.97083	8762
297.99185	8698
298.01288	8658
298.03391	8708
298.0549	8563
298.07593	8555
298.09695	8478
298.11798	8391
298.13898	8351
298.16	8265
298.18103	8254
298.20206	8135
298.22305	8017
298.24408	8007
298.26511	8003
298.2861	8000
298.30713	7958
298.32816	7946
298.34915	7843
298.37018	7847
298.3912	7923
298.4122	7936
298.43323	7826
298.45422	7870
298.47525	7775
298.49628	7777
298.51727	7741
298.5383	7664
298.55933	7683
298.58032	7682
298.60135	7641
298.62234	7558
298.64337	7584
298.66437	7618
298.68539	7587
298.70639	7609
298.72742	7569
298.74841	7575
298.76944	7617
298.79047	7465
298.81146	7473
298.83249	7470
298.85349	7464
298.87448	7543
298.89551	7604
298.9165	7694
298.93753	7608
298.95853	7558
298.97955	7644
299.00055	7668
299.02158	7708
299.04257	7754
299.0636	7807
299.08459	7867
299.10559	7891
299.12662	7823
299.14761	7965
299.16864	8029
299.18964	8104
299.21063	8162
299.23166	8177
299.25266	8248
299.27365	8249
299.29468	8275
299.31567	8341
299.33667	8444
299.3577	8470
299.37869	8489
299.39969	8629
299.42072	8712
299.44171	8833
299.46271	8867
299.4837	8881
299.50473	8943
299.52573	8992
299.54672	9051
299.56775	9104
299.58875	9249
299.60974	9279
299.63074	9296
299.65173	9304
299.67276	9305
299.69376	9395
299.71475	9455
299.73575	9549
299.75674	9544
299.77777	9636
299.79877	9576
299.81976	9603
299.84076	9601
299.86176	9638
299.88275	9709
299.90378	9681
299.92477	9701
299.94577	9704
299.96677	9659
299.98776	9633
300.00876	9704
300.02975	9664
300.05075	9641
300.07175	9587
300.09277	9670
300.11377	9667
300.13477	9629
300.15576	9571
300.17676	9521
300.19775	9421
300.21875	9352
300.23975	9272
300.26074	9222
300.28174	9141
300.30273	9093
300.32373	9139
300.34473	9110
300.36572	9086
300.38672	9033
300.40771	8978
300.42871	8909
300.44971	8925
300.4707	8964
300.4917	8982
300.5127	9035
300.53369	8963
300.55466	8910
300.57565	8832
300.59665	8834
300.61765	8866
300.63864	8836
300.65964	8773
300.68063	8817
300.70163	8757
300.72263	8629
300.74359	8537
300.76459	8510
300.78558	8523
300.80658	8506
300.82758	8600
300.84857	8581
300.86954	8657
300.89053	8503
300.91153	8538
300.93253	8519
300.95352	8530
300.97449	8574
300.99548	8575
301.01648	8654
301.03748	8658
301.05844	8634
301.07944	8571
301.10043	8609
301.12143	8521
301.1424	8532
301.16339	8535
301.18439	8500
301.20535	8562
301.22635	8510
301.24734	8482
301.26831	8498
301.28931	8514
301.3103	8495
301.33127	8594
301.35226	8592
301.37326	8604
301.39423	8557
301.41522	8566
301.43622	8601
301.45718	8670
301.47818	8674
301.49915	8688
301.52014	8770
301.54114	8737
301.5621	8719
301.5831	8635
301.60406	8552
301.62506	8618
301.64603	8658
301.66702	8588
301.68802	8669
301.70898	8748
301.72998	8754
301.75095	8718
301.77194	8716
301.79291	8699
301.8139	8677
301.83487	8713
301.85587	8678
301.87683	8672
301.8978	8607
301.91879	8556
301.93976	8512
301.96075	8557
301.98172	8525
302.00272	8552
302.02368	8569
302.04465	8586
302.06564	8478
302.08661	8402
302.1076	8337
302.12857	8392
302.14954	8439
302.17053	8425
302.1915	8443
302.21249	8357
302.23346	8348
302.25443	8322
302.27542	8311
302.29639	8203
302.31735	8229
302.33835	8129
302.35931	8135
302.38028	8071
302.40125	8058
302.42224	8014
302.44321	7985
302.46417	7912
302.48514	7828
302.50613	7747
302.5271	7725
302.54807	7671
302.56903	7711
302.59003	7701
302.61099	7641
302.63196	7672
302.65292	7667
302.67389	7675
302.69489	7661
302.71585	7664
302.73682	7733
302.75778	7728
302.77875	7684
302.79974	7629
302.82071	7669
302.84167	7673
302.86264	7717
302.88361	7669
302.90457	7656
302.92554	7670
302.9465	7709
302.96747	7720
302.98846	7746
303.00943	7711
303.0304	7766
303.05136	7729
303.07233	7760
303.09329	7828
303.11426	7942
303.13522	7940
303.15619	8005
303.17715	8088
303.19812	8092
303.21909	8074
303.24005	8135
303.26102	8188
303.28198	8190
303.30295	8266
303.32391	8337
303.34488	8392
303.36584	8453
303.38681	8514
303.40778	8625
303.42874	8687
303.44971	8814
303.47064	8882
303.49161	8926
303.51257	9000
303.53354	9044
303.5545	9096
303.57547	9214
303.59644	9339
303.6174	9498
303.63837	9666
303.6593	9671
303.68027	9776
303.70123	9891
303.7222	9924
303.74316	10000
303.76413	10061
303.78506	10166
303.80603	10188
303.827	10290
303.84796	10334
303.86893	10447
303.88986	10344
303.91083	10376
303.93179	10375
303.95276	10560
303.97369	10643
303.99466	10824
304.01563	10887
304.03656	10901
304.05753	10821
304.07849	10962
304.09946	11089
304.12039	11064
304.14136	11109
304.16232	11120
304.18326	11138
304.20422	11182
304.22519	11139
304.24612	11157
304.26709	11221
304.28806	11101
304.30899	10989
304.32996	11008
304.35089	11080
304.37186	11043
304.39282	10995
304.41376	10939
304.43472	11038
304.45566	10911
304.47662	10781
304.49756	10620
304.51852	10587
304.53949	10574
304.56042	10567
304.58139	10563
304.60233	10571
304.62329	10542
304.64423	10374
304.66519	10281
304.68613	10234
304.70709	10236
304.72803	10174
304.74899	10198
304.76993	10231
304.79086	10246
304.81183	10052
304.83276	10077
304.85373	10058
304.87466	10127
304.89563	10014
304.91656	9957
304.9375	9860
304.95847	9856
304.9794	9808
305.00037	9727
305.0213	9705
305.04224	9746
305.0632	9677
305.08414	9600
305.10507	9658
305.12604	9654
305.14697	9650
305.16791	9582
305.18887	9543
305.20981	9513
305.23074	9447
305.25171	9446
305.27264	9506
305.29358	9482
305.31451	9554
305.33548	9522
305.35641	9461
305.37735	9403
305.39828	9381
305.41925	9356
305.44019	9420
305.46112	9470
305.48206	9429
305.50299	9412
305.52396	9460
305.54489	9473
305.56583	9480
305.58676	9493
305.6077	9446
305.62866	9417
305.6496	9404
305.67053	9397
305.69147	9465
305.7124	9539
305.73334	9522
305.75427	9535
305.77521	9587
305.79617	9702
305.81711	9718
305.83804	9741
305.85898	9734
305.87991	9744
305.90085	9781
305.92178	9736
305.94272	9714
305.96365	9660
305.98459	9671
306.00552	9748
306.02646	9837
306.04739	9877
306.06833	9926
306.08926	9893
306.1102	9926
306.13113	9918
306.15207	10058
306.173	10164
306.19394	10342
306.21487	10441
306.23581	10471
306.25674	10522
306.27768	10590
306.29861	10635
306.31952	10732
306.34045	10788
306.36139	10919
306.38232	10974
306.40326	10940
306.42419	10864
306.44513	10902
306.46606	10903
306.48697	10970
306.5079	11217
306.52884	11405
306.54977	11506
306.57071	11499
306.59164	11530
306.61255	11490
306.63348	11683
306.65442	11814
306.67535	11926
306.69629	12108
306.71719	12204
306.73813	12197
306.75906	12210
306.78	12258
306.8009	12321
306.82184	12264
306.84277	12352
306.86368	12447
306.88461	12411
306.90555	12443
306.92648	12424
306.94739	12429
306.96832	12502
306.98926	12571
307.01016	12618
307.0311	12674
307.05203	12692
307.07294	12623
307.09387	12572
307.11478	12700
307.13571	12737
307.15665	12859
307.17755	12948
307.19849	12970
307.21939	13058
307.24033	13023
307.26126	12965
307.28217	12878
307.3031	12799
307.32401	12768
307.34494	12865
307.36584	12902
307.38678	12917
307.40768	12903
307.42862	12902
307.44952	12839
307.47046	12786
307.49136	12671
307.5123	12686
307.5332	12678
307.55414	12612
307.57504	12698
307.59598	12610
307.61688	12533
307.63779	12412
307.65872	12379
307.67963	12349
307.70056	12434
307.72147	12447
307.7424	12343
307.76331	12247
307.78421	12175
307.80515	12102
307.82605	12109
307.84695	12138
307.86789	12158
307.88879	12143
307.9097	12066
307.93063	11962
307.95154	11949
307.97244	11977
307.99338	11884
308.01428	11884
308.03519	11862
308.05612	11700
308.07703	11633
308.09793	11490
308.11884	11476
308.13977	11369
308.16068	11295
308.18158	11092
308.20248	11053
308.22339	10934
308.24432	10855
308.26523	10896
308.28613	10862
308.30704	10767
308.32794	10730
308.34888	10757
308.36978	10678
308.39069	10553
308.41159	10538
308.4325	10555
308.4534	10565
308.4743	10472
308.49524	10361
308.51614	10324
308.53705	10314
308.55795	10153
308.57886	10052
308.59976	10026
308.62067	10034
308.64157	9961
308.66248	9960
308.68338	9873
308.70428	9836
308.72519	9755
308.74609	9711
308.767	9699
308.7879	9739
308.80881	9712
308.82971	9661
308.85062	9630
308.87152	9624
308.89243	9567
308.91333	9560
308.93423	9538
308.95514	9471
308.97604	9370
308.99695	9299
309.01785	9262
309.03876	9165
309.05966	9147
309.08057	9054
309.10147	9054
309.12238	9055
309.14325	9029
309.16415	9087
309.18506	9048
309.20596	9022
309.22687	8993
309.24777	8956
309.26868	8948
309.28955	8996
309.31046	9117
309.33136	9173
309.35226	9243
309.37317	9298
309.39404	9330
309.41495	9323
309.43585	9320
309.45676	9293
309.47763	9360
309.49854	9247
309.51944	9334
309.54034	9359
309.56122	9437
309.58212	9402
309.60303	9416
309.62393	9426
309.64481	9579
309.66571	9662
309.68661	9722
309.70749	9783
309.72839	9800
309.7493	9804
309.77017	9925
309.79108	10016
309.81195	10101
309.83286	10137
309.85376	10216
309.87463	10294
309.89554	10308
309.91644	10247
309.93732	10318
309.95822	10371
309.9791	10460
310	10494
310.02087	10568
310.04178	10551
310.06265	10754
310.08356	10856
310.10443	11001
310.12534	11082
310.14624	11051
310.16711	10991
310.18799	10955
310.20889	10944
310.22977	11006
310.25067	11184
310.27155	11337
310.29245	11405
310.31332	11377
310.33423	11313
310.3551	11344
310.37601	11378
310.39688	11425
310.41776	11603
310.43866	11743
310.45953	11836
310.48044	11886
310.50131	11805
310.52219	11870
310.54309	11972
310.56396	12111
310.58484	12158
310.60574	12174
310.62662	12167
310.64749	12230
310.6684	12236
310.68927	12125
310.71014	12161
310.73105	12242
310.75192	12280
310.7728	12392
310.79367	12493
310.81458	12539
310.83545	12654
310.85632	12658
310.8772	12695
310.8981	12837
310.91898	12867
310.93985	12963
310.96072	12979
310.9816	12994
311.0025	12996
311.02338	13062
311.04425	13093
311.06512	13136
311.086	13180
311.10687	13183
311.12775	13186
311.14865	13226
311.16953	13189
311.1904	13219
311.21127	13282
311.23215	13285
311.25302	13446
311.2739	13447
311.29477	13414
311.31564	13358
311.33652	13301
311.35739	13373
311.3783	13504
311.39917	13605
311.42004	13586
311.44092	13647
311.46179	13749
311.48267	13728
311.50354	13722
311.52441	13634
311.54529	13606
311.56616	13555
311.58704	13407
311.60788	13328
311.62875	13336
311.64963	13335
311.6705	13271
311.69138	13287
311.71225	13287
311.73312	13337
311.754	13340
311.77487	13377
311.79575	13289
311.81662	13282
311.83746	13396
311.85834	13524
311.87921	13652
311.90009	13759
311.92096	13598
311.94183	13549
311.96271	13605
311.98355	13701
312.00443	13701
312.0253	13706
312.04617	13619
312.06705	13635
312.08789	13412
312.10876	13332
312.12964	13340
312.15051	13204
312.17136	13248
312.19223	13397
312.2131	13423
312.23395	13525
312.25482	13268
312.2757	13162
312.29657	13142
312.31741	13303
312.33829	13384
312.35916	13420
312.38	13386
312.40088	13375
312.42175	13306
312.4426	13174
312.46347	13224
312.48431	13077
312.50519	13093
312.52606	13021
312.54691	12956
312.56778	12958
312.58862	12936
312.6095	12880
312.63037	12876
312.65121	12828
312.67209	12748
312.69293	12708
312.71381	12664
312.73465	12553
312.75552	12484
312.77637	12476
312.79724	12454
312.81808	12404
312.83896	12537
312.8598	12583
312.88068	12592
