Date and Time:                Sun Jan 29 17:30:03.000 2023
Software Version:             4.31.30023.0
Temperature (C):              -40
Model:                        DU940P_BU2
Data Type:                    Counts
Acquisition Mode:             Single Scan
Trigger Mode:                 Internal
Exposure Time (secs):         0.6
Readout Mode:                 Full Vertical Binning
Horizontal binning:           1
Extended Dynamic Range:       off
Horizontally flipped:         false
Vertical Shift Speed (usecs): 14.51
Pixel Readout Rate (MHz):     3
Baseline Clamp:               ON
Clock Amplitude:              Normal
Output Amplifier:             High Capacity
Serial Number:                23634
Pre-Amplifier Gain:           1.000000
Spurious Noise Filter Mode:   No Filter
Photon counted:               false
Data Averaging Filter Mode:   No Filter
SR500i:
Serial Number:                
Wavelength (nm):              270
Grating Groove Density (l/mm):1199.47
Grating Blaze:                500
Output Flipper Port:          Direct
Accessory Output Port 1:      Off
Accessory Output Port 2:      Off
Accessory Output Port 3:      Off
Accessory Input Port:         On



248.30344	6210
248.32475	5888
248.34605	5866
248.36736	5875
248.38867	5864
248.40997	5955
248.43127	5943
248.45259	5929
248.47389	5895
248.49519	5844
248.51649	5862
248.53781	5808
248.55911	5749
248.58041	5781
248.60172	5842
248.62302	5849
248.64433	5837
248.66563	5850
248.68694	5836
248.70824	5863
248.72954	5824
248.75084	5855
248.77214	5874
248.79346	5864
248.81476	5849
248.83606	5861
248.85736	5853
248.87866	5873
248.89996	5853
248.92126	5892
248.94257	5930
248.96387	5949
248.98517	5923
249.00647	5960
249.02777	5933
249.04907	5922
249.07037	5906
249.09167	5963
249.11298	5982
249.13428	5995
249.15558	5957
249.17686	5937
249.19817	5902
249.21947	5892
249.24077	5929
249.26207	5969
249.28337	6015
249.30467	5985
249.32596	5979
249.34726	5949
249.36856	5971
249.38986	5986
249.41116	5976
249.43245	6037
249.45375	6046
249.47505	5986
249.49634	5946
249.51764	6030
249.53894	6025
249.56024	6039
249.58153	6048
249.60283	6048
249.62413	6043
249.64542	6053
249.66672	6040
249.688	6014
249.7093	6012
249.73061	6030
249.75189	5968
249.77319	5942
249.79448	5912
249.81578	5926
249.83707	5902
249.85837	5937
249.87965	5925
249.90096	5919
249.92224	5914
249.94354	5883
249.96483	5895
249.98613	5939
250.00742	5920
250.02872	5944
250.05	5994
250.07129	5985
250.09259	6029
250.11388	6045
250.13518	6055
250.15646	6009
250.17775	6022
250.19905	6020
250.22034	6050
250.24162	6025
250.26292	6023
250.28421	6007
250.3055	6004
250.32678	6001
250.34808	5995
250.36937	6027
250.39066	6053
250.41194	6093
250.43323	6108
250.45453	6038
250.47581	6063
250.4971	6101
250.51839	6100
250.53967	6168
250.56096	6170
250.58226	6240
250.60355	6224
250.62483	6175
250.64612	6189
250.6674	6200
250.68869	6181
250.70998	6172
250.73126	6230
250.75255	6229
250.77383	6183
250.79512	6197
250.81641	6226
250.83769	6210
250.85898	6210
250.88026	6199
250.90155	6193
250.92284	6188
250.94412	6195
250.96541	6181
250.98669	6149
251.00797	6196
251.02925	6207
251.05054	6241
251.07182	6241
251.09311	6255
251.1144	6239
251.13567	6293
251.15695	6235
251.17824	6244
251.19952	6224
251.22081	6238
251.24208	6250
251.26337	6228
251.28465	6195
251.30592	6198
251.32721	6239
251.3485	6251
251.36978	6261
251.39105	6287
251.41234	6235
251.43362	6311
251.4549	6276
251.47618	6329
251.49745	6369
251.51874	6392
251.54002	6366
251.56129	6401
251.58258	6474
251.60385	6443
251.62514	6417
251.64641	6417
251.66769	6453
251.68896	6440
251.71025	6430
251.73152	6443
251.75281	6458
251.77408	6436
251.79536	6463
251.81664	6511
251.83791	6535
251.85919	6583
251.88046	6594
251.90175	6604
251.92302	6571
251.94429	6590
251.96558	6635
251.98685	6678
252.00812	6690
252.0294	6733
252.05067	6769
252.07195	6820
252.09322	6847
252.1145	6818
252.13577	6784
252.15704	6786
252.17831	6796
252.1996	6810
252.22087	6785
252.24214	6800
252.26341	6812
252.28468	6797
252.30597	6811
252.32724	6744
252.34851	6746
252.36978	6812
252.39105	6771
252.41232	6833
252.43359	6793
252.45486	6829
252.47614	6870
252.49741	6893
252.51868	6984
252.53995	6920
252.56122	7015
252.58249	6980
252.60376	7019
252.62503	7021
252.6463	7023
252.66757	6997
252.68884	7039
252.71011	6970
252.73138	6970
252.75266	6955
252.77393	6989
252.7952	7045
252.81645	7029
252.83772	7009
252.85899	7029
252.88026	6987
252.90154	6982
252.92281	6929
252.94406	7035
252.96533	7076
252.9866	7111
253.00787	7097
253.02913	7126
253.0504	7071
253.07167	7037
253.09293	7042
253.1142	7051
253.13547	7057
253.15674	7135
253.17799	7121
253.19926	7104
253.22052	7078
253.24179	7044
253.26306	7086
253.28432	7203
253.30559	7187
253.32684	7181
253.34811	7198
253.36937	7204
253.39064	7228
253.41191	7243
253.43317	7252
253.45444	7308
253.47569	7303
253.49695	7280
253.51822	7331
253.53947	7349
253.56075	7335
253.582	7341
253.60327	7412
253.62453	7372
253.64578	7376
253.66705	7337
253.68831	7343
253.70956	7380
253.73083	7379
253.75209	7384
253.77335	7327
253.79462	7307
253.81587	7316
253.83713	7319
253.8584	7414
253.87965	7455
253.90091	7440
253.92216	7386
253.94342	7481
253.96469	7489
253.98595	7512
254.0072	7474
254.02846	7476
254.04971	7485
254.07097	7459
254.09224	7469
254.11349	7455
254.13475	7493
254.15601	7452
254.17726	7459
254.19852	7494
254.21977	7525
254.24103	7489
254.26228	7483
254.28354	7424
254.30479	7402
254.32605	7434
254.34731	7377
254.36856	7413
254.38982	7471
254.41107	7469
254.43233	7460
254.45358	7502
254.47484	7533
254.49609	7520
254.51733	7545
254.53859	7495
254.55984	7459
254.5811	7489
254.60236	7508
254.62361	7513
254.64485	7574
254.66611	7558
254.68736	7540
254.70862	7551
254.72986	7598
254.75111	7685
254.77237	7690
254.79362	7656
254.81487	7612
254.83612	7645
254.85738	7645
254.87862	7616
254.89987	7702
254.92113	7663
254.94237	7705
254.96362	7674
254.98486	7696
255.00612	7724
255.02737	7735
255.04861	7718
255.06987	7702
255.09111	7765
255.11237	7741
255.13361	7739
255.15486	7758
255.1761	7800
255.19736	7764
255.2186	7800
255.23985	7827
255.26109	7851
255.28235	7794
255.30359	7746
255.32483	7793
255.34608	7858
255.36732	7861
255.38858	7873
255.40982	7966
255.43106	7945
255.45232	7978
255.47356	8005
255.4948	8068
255.51604	8043
255.53729	8032
255.55853	7996
255.57977	8029
255.60101	8028
255.62227	8030
255.64351	8043
255.66475	8082
255.68599	8088
255.70723	8058
255.72849	8032
255.74973	8051
255.77097	8041
255.79221	8074
255.81345	8133
255.83469	8183
255.85593	8251
255.87717	8293
255.89841	8250
255.91966	8251
255.9409	8275
255.96214	8288
255.98338	8391
256.00461	8361
256.02585	8414
256.04709	8375
256.06833	8314
256.08957	8372
256.11081	8315
256.13205	8372
256.15329	8414
256.17453	8506
256.19577	8555
256.21701	8516
256.23825	8460
256.25949	8450
256.28073	8441
256.30197	8483
256.32321	8575
256.34442	8625
256.36566	8642
256.3869	8611
256.40814	8594
256.42938	8616
256.45062	8618
256.47186	8614
256.4931	8665
256.51431	8698
256.53555	8725
256.55679	8613
256.57803	8668
256.59927	8628
256.62051	8639
256.64172	8668
256.66296	8605
256.6842	8654
256.70544	8629
256.72668	8638
256.74789	8705
256.76913	8657
256.79037	8701
256.81161	8742
256.83282	8762
256.85406	8818
256.87531	8852
256.89655	8890
256.91776	8849
256.939	8834
256.96024	8832
256.98145	8767
257.00269	8857
257.02393	8853
257.04517	8780
257.06638	8802
257.08762	8817
257.10886	8892
257.13007	8815
257.15131	8868
257.17252	8872
257.19376	8877
257.215	8884
257.23621	8920
257.25745	8977
257.27869	9103
257.2999	9137
257.32114	9114
257.34235	9106
257.36359	9197
257.38483	9155
257.40604	9125
257.42728	9104
257.44849	9135
257.46973	9142
257.49094	9202
257.51218	9189
257.53342	9184
257.55463	9180
257.57587	9217
257.59708	9268
257.61832	9333
257.63953	9424
257.66077	9458
257.68198	9410
257.70322	9397
257.72443	9380
257.74567	9449
257.76688	9558
257.78812	9622
257.80933	9674
257.83054	9671
257.85178	9702
257.87299	9634
257.89423	9661
257.91544	9720
257.93668	9677
257.95789	9771
257.9791	9670
258.00034	9628
258.02155	9676
258.04279	9679
258.064	9649
258.08521	9660
258.10645	9611
258.12766	9650
258.14886	9602
258.1701	9672
258.19131	9699
258.21252	9664
258.23376	9680
258.25497	9744
258.27618	9841
258.29742	9907
258.31863	9912
258.33984	9872
258.36108	9933
258.38229	9904
258.4035	9942
258.42471	9909
258.44595	9873
258.46716	9859
258.48837	9837
258.50958	9834
258.53082	9842
258.55203	9894
258.57324	9925
258.59445	9924
258.61569	9982
258.6369	10008
258.65811	9934
258.67932	9932
258.70053	9842
258.72177	9888
258.74298	9870
258.76419	9992
258.7854	10005
258.80661	10101
258.82782	10006
258.84903	9987
258.87027	10000
258.89148	10072
258.91269	10048
258.9339	10088
258.95511	10176
258.97632	10164
258.99753	10114
259.01874	10147
259.03995	10211
259.06119	10274
259.0824	10319
259.10361	10346
259.12482	10309
259.14603	10335
259.16724	10351
259.18845	10371
259.20966	10421
259.23087	10447
259.25208	10486
259.27328	10517
259.29449	10580
259.3157	10625
259.33691	10706
259.35812	10687
259.37933	10691
259.40054	10738
259.42175	10710
259.44296	10706
259.46417	10766
259.48538	10873
259.50659	10878
259.5278	10873
259.54898	10760
259.57019	10729
259.5914	10739
259.61261	10867
259.63382	10997
259.65503	10958
259.67624	10989
259.69745	10958
259.71866	11020
259.73984	11039
259.76105	11004
259.78226	11026
259.80347	11070
259.82468	11082
259.84589	11077
259.86707	11096
259.88828	11141
259.90948	11192
259.93069	11205
259.9519	11136
259.97311	11184
259.99429	11223
260.0155	11249
260.03671	11277
260.05792	11288
260.0791	11289
260.10031	11212
260.12152	11145
260.14273	11068
260.16391	11077
260.18512	11058
260.20633	11082
260.22754	11192
260.24872	11228
260.26993	11249
260.29114	11215
260.31232	11201
260.33353	11171
260.35474	11221
260.37592	11310
260.39713	11391
260.41833	11469
260.43951	11483
260.46072	11408
260.48193	11420
260.50311	11533
260.52432	11516
260.5455	11577
260.56671	11661
260.58792	11603
260.6091	11597
260.63031	11507
260.65149	11430
260.6727	11443
260.69391	11459
260.71509	11463
260.7363	11626
260.75748	11677
260.77869	11705
260.79987	11610
260.82108	11658
260.84225	11652
260.86346	11677
260.88464	11711
260.90585	11769
260.92703	11838
260.94824	11873
260.96942	11837
260.99063	11764
261.01181	11758
261.03302	11720
261.0542	11738
261.07541	11793
261.09659	11798
261.11777	11777
261.13898	11784
261.16016	11739
261.18137	11751
261.20255	11755
261.22375	11796
261.24493	11893
261.26611	11811
261.28732	11879
261.3085	11813
261.32968	11775
261.35089	11809
261.37207	11940
261.39325	11921
261.41446	11968
261.43564	12008
261.45682	11979
261.47803	11935
261.49921	11929
261.52039	11839
261.5416	11808
261.56277	11838
261.58395	11860
261.60516	11926
261.62634	11987
261.64752	12052
261.6687	12108
261.68991	12037
261.71109	12057
261.73227	12060
261.75345	12107
261.77466	12155
261.79584	12137
261.81702	12161
261.8382	12121
261.85938	12165
261.88058	12141
261.90176	12179
261.92294	12264
261.94412	12314
261.9653	12371
261.98648	12313
262.00769	12324
262.02887	12313
262.05005	12363
262.07123	12530
262.09241	12523
262.11359	12623
262.13477	12660
262.15594	12670
262.17715	12744
262.19833	12686
262.21951	12651
262.24069	12611
262.26187	12662
262.28305	12718
262.30423	12693
262.32541	12627
262.34659	12645
262.36777	12636
262.38895	12624
262.41013	12502
262.4313	12546
262.45248	12543
262.47366	12528
262.49484	12578
262.51602	12537
262.5372	12567
262.55838	12559
262.57956	12714
262.60074	12762
262.62192	12798
262.6431	12779
262.66428	12878
262.68546	12900
262.70663	12858
262.72781	12823
262.74899	12850
262.77017	12882
262.79132	12882
262.8125	12833
262.83368	12805
262.85486	12844
262.87604	12872
262.89722	12815
262.9184	12834
262.93958	12840
262.96072	12807
262.9819	12847
263.00308	12806
263.02426	12936
263.04544	13025
263.06662	13057
263.08777	13069
263.10895	13117
263.13013	13085
263.15131	13030
263.17245	13054
263.19363	13069
263.21481	13044
263.23599	13115
263.25717	13066
263.27832	13098
263.2995	13105
263.32068	13101
263.34183	13165
263.36301	13272
263.38419	13363
263.40536	13358
263.42651	13356
263.44769	13360
263.46887	13307
263.49002	13333
263.5112	13456
263.53238	13560
263.55353	13680
263.57471	13678
263.59589	13626
263.61703	13650
263.63821	13707
263.65939	13694
263.68054	13651
263.70172	13733
263.72287	13715
263.74405	13654
263.76523	13721
263.78638	13683
263.80756	13671
263.8287	13597
263.84988	13491
263.87103	13573
263.89221	13628
263.91336	13726
263.93454	13834
263.95569	13723
263.97687	13753
263.99805	13693
264.0192	13853
264.04037	13937
264.06152	13935
264.08267	13970
264.10385	14020
264.125	13962
264.14618	13959
264.16733	13962
264.18851	13966
264.20966	14023
264.23083	13972
264.25198	13892
264.27316	13865
264.29431	13975
264.31546	13947
264.33664	13896
264.35779	13978
264.37897	14017
264.40012	13950
264.42126	13924
264.44244	13872
264.46359	13907
264.48474	13993
264.50592	13957
264.52707	14019
264.54822	14142
264.5694	14082
264.59055	13983
264.61169	13902
264.63287	13928
264.65402	14018
264.67517	14080
264.69632	14153
264.7175	14225
264.73865	14319
264.7598	14210
264.78098	14252
264.80212	14427
264.82327	14388
264.84442	14442
264.86557	14428
264.88675	14427
264.9079	14339
264.92905	14230
264.9502	14331
264.97137	14449
264.99252	14554
265.01367	14634
265.03482	14493
265.05597	14636
265.07712	14742
265.0983	14809
265.11945	14748
265.14059	14703
265.16174	14718
265.18289	14705
265.20404	14677
265.22519	14757
265.24634	14841
265.26749	14779
265.28867	14789
265.30981	14720
265.33096	14706
265.35211	14677
265.37326	14786
265.39441	14914
265.41556	14979
265.43671	14928
265.45786	14908
265.479	15051
265.50015	15005
265.5213	15096
265.54245	15055
265.5636	14975
265.58475	15065
265.6059	15025
265.62704	15041
265.64819	15065
265.66934	15076
265.69049	15053
265.71164	15088
265.73279	15169
265.75394	15249
265.77509	15308
265.79623	15358
265.81735	15322
265.8385	15281
265.85965	15207
265.8808	15037
265.90195	14997
265.9231	14917
265.94424	14947
265.96539	15066
265.98654	15081
266.00766	15142
266.02881	15109
266.04996	15005
266.07111	14968
266.09225	14983
266.1134	15051
266.13452	15106
266.15567	15285
266.17682	15383
266.19797	15270
266.21909	15223
266.24023	15377
266.26138	15452
266.28253	15477
266.30368	15512
266.3248	15581
266.34595	15627
266.3671	15470
266.38821	15417
266.40936	15363
266.43051	15374
266.45166	15334
266.47278	15465
266.49393	15645
266.51508	15768
266.53619	15768
266.55734	15789
266.57849	15754
266.59961	15859
266.62076	16052
266.64191	16050
266.66302	16205
266.68417	16271
266.70529	16177
266.72644	16188
266.74759	16194
266.76871	16257
266.78986	16126
266.81097	16287
266.83212	16297
266.85327	16246
266.87439	16258
266.89554	16246
266.91666	16257
266.93781	16214
266.95892	16212
266.98007	16261
267.00119	16365
267.02234	16324
267.04346	16177
267.06461	16131
267.08572	16132
267.10687	16139
267.12799	16271
267.14914	16337
267.17026	16477
267.19141	16480
267.21252	16436
267.23367	16296
267.25479	16201
267.27591	16110
267.29706	16172
267.31818	16228
267.33932	16280
267.36044	16347
267.38156	16287
267.40271	16308
267.42383	16262
267.44498	16248
267.46609	16221
267.48721	16225
267.50836	16231
267.52948	16312
267.5506	16328
267.57175	16285
267.59286	16223
267.61398	16189
267.63513	16126
267.65625	16178
267.67737	16358
267.69849	16470
267.71964	16517
267.74075	16465
267.76187	16372
267.78299	16356
267.80414	16433
267.82526	16546
267.84637	16594
267.86749	16779
267.88864	16822
267.90976	16722
267.93088	16805
267.952	16885
267.97311	16882
267.99426	16894
268.01538	16990
268.0365	16966
268.05762	16966
268.07874	16876
268.09985	16897
268.121	16919
268.14212	16867
268.16324	16794
268.18436	16807
268.20547	16778
268.22659	16794
268.24771	16821
268.26883	16889
268.28995	16864
268.31107	17007
268.33218	17064
268.35333	17112
268.37445	17068
268.39557	17138
268.41669	17209
268.43781	17207
268.45892	17149
268.48004	17137
268.50116	17245
268.52228	17238
268.5434	17201
268.56451	17048
268.58563	17045
268.60675	17143
268.62787	17154
268.64899	17111
268.6701	17017
268.69122	17012
268.71231	17060
268.73343	16980
268.75455	17108
268.77567	17066
268.79678	17244
268.8179	17272
268.83902	17306
268.86014	17272
268.88126	17233
268.90237	17193
268.92346	17197
268.94458	17249
268.9657	17280
268.98682	17391
269.00793	17394
269.02905	17448
269.05014	17378
269.07126	17341
269.09238	17470
269.11349	17641
269.13461	17747
269.1557	17838
269.17682	17738
269.19794	17599
269.21906	17533
269.24014	17492
269.26126	17552
269.28238	17762
269.3035	17936
269.32458	17910
269.3457	17987
269.36682	18052
269.38794	18005
269.40903	17969
269.43015	17905
269.45126	17898
269.47235	17879
269.49347	17772
269.51459	17766
269.53568	17766
269.55679	17720
269.57791	17735
269.599	17615
269.62012	17671
269.6412	17862
269.66232	17945
269.68344	18019
269.70453	17972
269.72565	17857
269.74673	17996
269.76785	18127
269.78897	18330
269.81006	18248
269.83118	18269
269.85226	18323
269.87338	18451
269.89447	18336
269.91559	18238
269.93668	18299
269.95779	18303
269.97888	18265
270	18208
270.02109	18341
270.04221	18424
270.06329	18457
270.08441	18602
270.1055	18805
270.12662	18790
270.14771	18741
270.16879	18640
270.18991	18529
270.211	18525
270.23212	18518
270.2532	18616
270.27432	18772
270.29541	18883
270.3165	18809
270.33762	18587
270.3587	18568
270.37979	18593
270.40091	18653
270.422	18769
270.44308	18960
270.4642	19021
270.48529	19098
270.50638	18923
270.5275	18992
270.54858	19095
270.56967	19150
270.59079	19209
270.61188	19114
270.63297	19181
270.65405	19161
270.67517	19153
270.69626	19101
270.71735	19044
270.73843	19068
270.75955	19068
270.78064	19248
270.80173	19346
270.82281	19374
270.8439	19400
270.86502	19460
270.88611	19539
270.9072	19567
270.92828	19627
270.94937	19690
270.97049	19752
270.99158	19667
271.01266	19562
271.03375	19576
271.05484	19638
271.07593	19677
271.09702	19660
271.1181	19798
271.13919	19823
271.16031	19802
271.1814	19707
271.20248	19766
271.22357	19683
271.24466	19826
271.26575	19878
271.28683	19890
271.30792	19905
271.32901	19688
271.3501	19778
271.37119	19763
271.39227	19902
271.41336	19837
271.43445	19887
271.45554	20001
271.47662	20110
271.49771	20077
271.5188	19995
271.53989	19901
271.56097	19752
271.58206	19734
271.60315	19499
271.62424	19341
271.64532	19309
271.66638	19164
271.68747	19162
271.70856	19216
271.72964	19349
271.75073	19382
271.77182	19380
271.79291	19371
271.814	19373
271.83505	19359
271.85614	19445
271.87723	19571
271.89832	19812
271.9194	19858
271.94049	19797
271.96155	19760
271.98264	19935
272.00372	20066
272.02481	20067
272.04587	20134
272.06696	20129
272.08804	20044
272.10913	19895
272.13022	19776
272.15128	19849
272.17236	19748
272.19345	19829
272.21451	20064
272.2356	20220
272.25668	20322
272.27777	20141
272.29883	20094
272.31992	20110
272.341	20251
272.36206	20401
272.38315	20606
272.40424	20706
272.42529	20738
272.44638	20739
272.46744	20655
272.48853	20721
