Date and Time:                Sun Jan 29 17:30:09.000 2023
Software Version:             4.31.30023.0
Temperature (C):              -40
Model:                        DU940P_BU2
Data Type:                    Counts
Acquisition Mode:             Single Scan
Trigger Mode:                 Internal
Exposure Time (secs):         0.6
Readout Mode:                 Full Vertical Binning
Horizontal binning:           1
Extended Dynamic Range:       off
Horizontally flipped:         false
Vertical Shift Speed (usecs): 14.51
Pixel Readout Rate (MHz):     3
Baseline Clamp:               ON
Clock Amplitude:              Normal
Output Amplifier:             High Capacity
Serial Number:                23634
Pre-Amplifier Gain:           1.000000
Spurious Noise Filter Mode:   No Filter
Photon counted:               false
Data Averaging Filter Mode:   No Filter
SR500i:
Serial Number:                
Wavelength (nm):              270
Grating Groove Density (l/mm):1199.47
Grating Blaze:                500
Output Flipper Port:          Direct
Accessory Output Port 1:      Off
Accessory Output Port 2:      Off
Accessory Output Port 3:      Off
Accessory Input Port:         On



248.30344	6226
248.32475	5939
248.34605	5916
248.36736	5882
248.38867	5915
248.40997	5957
248.43127	5956
248.45259	5938
248.47389	5911
248.49519	5880
248.51649	5880
248.53781	5821
248.55911	5827
248.58041	5830
248.60172	5839
248.62302	5846
248.64433	5876
248.66563	5874
248.68694	5897
248.70824	5867
248.72954	5879
248.75084	5867
248.77214	5864
248.79346	5872
248.81476	5869
248.83606	5849
248.85736	5870
248.87866	5860
248.89996	5889
248.92126	5911
248.94257	5914
248.96387	5911
248.98517	5934
249.00647	5931
249.02777	5965
249.04907	5964
249.07037	5935
249.09167	5941
249.11298	5982
249.13428	5960
249.15558	5973
249.17686	5929
249.19817	5916
249.21947	5918
249.24077	5954
249.26207	5990
249.28337	5968
249.30467	5958
249.32596	6011
249.34726	5929
249.36856	5964
249.38986	5988
249.41116	6030
249.43245	5986
249.45375	5997
249.47505	6001
249.49634	6000
249.51764	6033
249.53894	6038
249.56024	6033
249.58153	6026
249.60283	6056
249.62413	6058
249.64542	6032
249.66672	6078
249.688	6064
249.7093	6012
249.73061	6038
249.75189	5972
249.77319	5952
249.79448	5926
249.81578	5920
249.83707	5947
249.85837	5956
249.87965	5950
249.90096	5935
249.92224	5919
249.94354	5931
249.96483	5936
249.98613	5912
250.00742	5925
250.02872	5945
250.05	5980
250.07129	6006
250.09259	6023
250.11388	6077
250.13518	6052
250.15646	6038
250.17775	6014
250.19905	5985
250.22034	6045
250.24162	6041
250.26292	6025
250.28421	5989
250.3055	6034
250.32678	6037
250.34808	6028
250.36937	6018
250.39066	6064
250.41194	6112
250.43323	6097
250.45453	6069
250.47581	6056
250.4971	6078
250.51839	6115
250.53967	6172
250.56096	6179
250.58226	6225
250.60355	6223
250.62483	6200
250.64612	6171
250.6674	6202
250.68869	6175
250.70998	6195
250.73126	6215
250.75255	6262
250.77383	6239
250.79512	6200
250.81641	6235
250.83769	6305
250.85898	6268
250.88026	6191
250.90155	6221
250.92284	6226
250.94412	6176
250.96541	6218
250.98669	6200
251.00797	6217
251.02925	6244
251.05054	6238
251.07182	6243
251.09311	6281
251.1144	6295
251.13567	6259
251.15695	6262
251.17824	6259
251.19952	6275
251.22081	6231
251.24208	6269
251.26337	6223
251.28465	6244
251.30592	6209
251.32721	6273
251.3485	6272
251.36978	6286
251.39105	6298
251.41234	6260
251.43362	6317
251.4549	6274
251.47618	6320
251.49745	6356
251.51874	6417
251.54002	6442
251.56129	6470
251.58258	6476
251.60385	6478
251.62514	6412
251.64641	6400
251.66769	6446
251.68896	6454
251.71025	6460
251.73152	6435
251.75281	6457
251.77408	6476
251.79536	6499
251.81664	6514
251.83791	6504
251.85919	6597
251.88046	6600
251.90175	6554
251.92302	6582
251.94429	6579
251.96558	6635
251.98685	6657
252.00812	6741
252.0294	6785
252.05067	6766
252.07195	6780
252.09322	6852
252.1145	6774
252.13577	6751
252.15704	6795
252.17831	6829
252.1996	6827
252.22087	6822
252.24214	6802
252.26341	6815
252.28468	6817
252.30597	6817
252.32724	6765
252.34851	6818
252.36978	6792
252.39105	6769
252.41232	6825
252.43359	6838
252.45486	6884
252.47614	6919
252.49741	6938
252.51868	6966
252.53995	6997
252.56122	6997
252.58249	7005
252.60376	7010
252.62503	7009
252.6463	6987
252.66757	7059
252.68884	7008
252.71011	7038
252.73138	6975
252.75266	6968
252.77393	7024
252.7952	7006
252.81645	7056
252.83772	7075
252.85899	7035
252.88026	7035
252.90154	6974
252.92281	6995
252.94406	7054
252.96533	7050
252.9866	7086
253.00787	7102
253.02913	7153
253.0504	7086
253.07167	7044
253.09293	7036
253.1142	7028
253.13547	7081
253.15674	7103
253.17799	7137
253.19926	7106
253.22052	7071
253.24179	7059
253.26306	7134
253.28432	7225
253.30559	7204
253.32684	7227
253.34811	7209
253.36937	7223
253.39064	7198
253.41191	7241
253.43317	7253
253.45444	7251
253.47569	7364
253.49695	7324
253.51822	7281
253.53947	7338
253.56075	7391
253.582	7388
253.60327	7385
253.62453	7414
253.64578	7370
253.66705	7352
253.68831	7362
253.70956	7391
253.73083	7399
253.75209	7368
253.77335	7331
253.79462	7339
253.81587	7321
253.83713	7374
253.8584	7427
253.87965	7438
253.90091	7398
253.92216	7417
253.94342	7493
253.96469	7494
253.98595	7504
254.0072	7480
254.02846	7443
254.04971	7454
254.07097	7497
254.09224	7471
254.11349	7456
254.13475	7516
254.15601	7454
254.17726	7467
254.19852	7483
254.21977	7536
254.24103	7549
254.26228	7440
254.28354	7456
254.30479	7433
254.32605	7416
254.34731	7447
254.36856	7392
254.38982	7447
254.41107	7424
254.43233	7471
254.45358	7479
254.47484	7503
254.49609	7526
254.51733	7512
254.53859	7550
254.55984	7491
254.5811	7460
254.60236	7523
254.62361	7572
254.64485	7543
254.66611	7610
254.68736	7579
254.70862	7561
254.72986	7615
254.75111	7673
254.77237	7652
254.79362	7659
254.81487	7640
254.83612	7681
254.85738	7632
254.87862	7654
254.89987	7670
254.92113	7698
254.94237	7677
254.96362	7664
254.98486	7729
255.00612	7714
255.02737	7703
255.04861	7730
255.06987	7728
255.09111	7763
255.11237	7772
255.13361	7743
255.15486	7807
255.1761	7811
255.19736	7825
255.2186	7877
255.23985	7843
255.26109	7822
255.28235	7807
255.30359	7779
255.32483	7784
255.34608	7809
255.36732	7900
255.38858	7880
255.40982	7923
255.43106	7947
255.45232	7991
255.47356	8013
255.4948	8032
255.51604	8081
255.53729	8011
255.55853	8031
255.57977	8044
255.60101	8027
255.62227	8031
255.64351	8086
255.66475	8109
255.68599	8052
255.70723	8063
255.72849	8051
255.74973	8109
255.77097	8063
255.79221	8083
255.81345	8138
255.83469	8207
255.85593	8263
255.87717	8254
255.89841	8260
255.91966	8276
255.9409	8315
255.96214	8324
255.98338	8391
256.00461	8408
256.02585	8375
256.04709	8358
256.06833	8332
256.08957	8308
256.11081	8288
256.13205	8338
256.15329	8387
256.17453	8502
256.19577	8552
256.21701	8484
256.23825	8435
256.25949	8412
256.28073	8456
256.30197	8462
256.32321	8585
256.34442	8624
256.36566	8667
256.3869	8634
256.40814	8585
256.42938	8621
256.45062	8628
256.47186	8638
256.4931	8681
256.51431	8705
256.53555	8713
256.55679	8648
256.57803	8637
256.59927	8662
256.62051	8637
256.64172	8657
256.66296	8648
256.6842	8653
256.70544	8622
256.72668	8644
256.74789	8687
256.76913	8685
256.79037	8739
256.81161	8787
256.83282	8833
256.85406	8882
256.87531	8844
256.89655	8876
256.91776	8887
256.939	8836
256.96024	8815
256.98145	8755
257.00269	8753
257.02393	8860
257.04517	8807
257.06638	8843
257.08762	8810
257.10886	8847
257.13007	8923
257.15131	8905
257.17252	8913
257.19376	8898
257.215	8925
257.23621	8903
257.25745	9028
257.27869	9115
257.2999	9102
257.32114	9142
257.34235	9125
257.36359	9177
257.38483	9179
257.40604	9118
257.42728	9082
257.44849	9153
257.46973	9152
257.49094	9189
257.51218	9175
257.53342	9180
257.55463	9191
257.57587	9194
257.59708	9317
257.61832	9371
257.63953	9383
257.66077	9408
257.68198	9405
257.70322	9390
257.72443	9380
257.74567	9515
257.76688	9535
257.78812	9617
257.80933	9704
257.83054	9650
257.85178	9658
257.87299	9679
257.89423	9664
257.91544	9683
257.93668	9678
257.95789	9678
257.9791	9745
258.00034	9651
258.02155	9667
258.04279	9619
258.064	9731
258.08521	9687
258.10645	9647
258.12766	9659
258.14886	9630
258.1701	9649
258.19131	9719
258.21252	9678
258.23376	9753
258.25497	9782
258.27618	9876
258.29742	9873
258.31863	9877
258.33984	9916
258.36108	9897
258.38229	9898
258.4035	9901
258.42471	9866
258.44595	9854
258.46716	9901
258.48837	9889
258.50958	9836
258.53082	9910
258.55203	9936
258.57324	9995
258.59445	9935
258.61569	9932
258.6369	9993
258.65811	9934
258.67932	9909
258.70053	9875
258.72177	9890
258.74298	9945
258.76419	9978
258.7854	10039
258.80661	10047
258.82782	10063
258.84903	10012
258.87027	10018
258.89148	10039
258.91269	10098
258.9339	10127
258.95511	10173
258.97632	10185
258.99753	10157
259.01874	10153
259.03995	10252
259.06119	10278
259.0824	10327
259.10361	10353
259.12482	10333
259.14603	10358
259.16724	10292
259.18845	10374
259.20966	10349
259.23087	10429
259.25208	10521
259.27328	10502
259.29449	10605
259.3157	10686
259.33691	10708
259.35812	10665
259.37933	10696
259.40054	10769
259.42175	10741
259.44296	10740
259.46417	10810
259.48538	10826
259.50659	10880
259.5278	10816
259.54898	10781
259.57019	10763
259.5914	10853
259.61261	10901
259.63382	11002
259.65503	10994
259.67624	10965
259.69745	10951
259.71866	11029
259.73984	11054
259.76105	11045
259.78226	11047
259.80347	11059
259.82468	11122
259.84589	11153
259.86707	11103
259.88828	11108
259.90948	11166
259.93069	11170
259.9519	11109
259.97311	11152
259.99429	11196
260.0155	11253
260.03671	11303
260.05792	11261
260.0791	11257
260.10031	11218
260.12152	11141
260.14273	11078
260.16391	11114
260.18512	11093
260.20633	11130
260.22754	11173
260.24872	11242
260.26993	11243
260.29114	11235
260.31232	11206
260.33353	11209
260.35474	11194
260.37592	11339
260.39713	11415
260.41833	11480
260.43951	11489
260.46072	11460
260.48193	11438
260.50311	11544
260.52432	11524
260.5455	11592
260.56671	11624
260.58792	11629
260.6091	11604
260.63031	11433
260.65149	11429
260.6727	11438
260.69391	11455
260.71509	11514
260.7363	11570
260.75748	11611
260.77869	11694
260.79987	11694
260.82108	11632
260.84225	11697
260.86346	11738
260.88464	11740
260.90585	11822
260.92703	11833
260.94824	11895
260.96942	11804
260.99063	11771
261.01181	11709
261.03302	11736
261.0542	11805
261.07541	11736
261.09659	11751
261.11777	11813
261.13898	11764
261.16016	11693
261.18137	11755
261.20255	11741
261.22375	11753
261.24493	11878
261.26611	11937
261.28732	11886
261.3085	11776
261.32968	11825
261.35089	11901
261.37207	11943
261.39325	11918
261.41446	11965
261.43564	11974
261.45682	11979
261.47803	11964
261.49921	11915
261.52039	11859
261.5416	11820
261.56277	11820
261.58395	11898
261.60516	11938
261.62634	11997
261.64752	12059
261.6687	12037
261.68991	12066
261.71109	12056
261.73227	12070
261.75345	12128
261.77466	12152
261.79584	12175
261.81702	12128
261.8382	12161
261.85938	12134
261.88058	12134
261.90176	12208
261.92294	12290
261.94412	12316
261.9653	12384
261.98648	12335
262.00769	12295
262.02887	12302
262.05005	12404
262.07123	12510
262.09241	12576
262.11359	12626
262.13477	12656
262.15594	12687
262.17715	12655
262.19833	12728
262.21951	12670
262.24069	12623
262.26187	12692
262.28305	12747
262.30423	12654
262.32541	12651
262.34659	12687
262.36777	12594
262.38895	12648
262.41013	12584
262.4313	12531
262.45248	12537
262.47366	12492
262.49484	12514
262.51602	12574
262.5372	12567
262.55838	12611
262.57956	12671
262.60074	12758
262.62192	12849
262.6431	12817
262.66428	12808
262.68546	12871
262.70663	12841
262.72781	12853
262.74899	12891
262.77017	12852
262.79132	12900
262.8125	12817
262.83368	12816
262.85486	12811
262.87604	12829
262.89722	12841
262.9184	12864
262.93958	12858
262.96072	12854
262.9819	12861
263.00308	12870
263.02426	13002
263.04544	13045
263.06662	13067
263.08777	13121
263.10895	13065
263.13013	13127
263.15131	13090
263.17245	13034
263.19363	13054
263.21481	13054
263.23599	13065
263.25717	13120
263.27832	13092
263.2995	13092
263.32068	13136
263.34183	13130
263.36301	13303
263.38419	13337
263.40536	13383
263.42651	13383
263.44769	13399
263.46887	13327
263.49002	13357
263.5112	13493
263.53238	13549
263.55353	13675
263.57471	13611
263.59589	13662
263.61703	13650
263.63821	13672
263.65939	13643
263.68054	13696
263.70172	13766
263.72287	13721
263.74405	13753
263.76523	13713
263.78638	13753
263.80756	13652
263.8287	13632
263.84988	13605
263.87103	13546
263.89221	13600
263.91336	13694
263.93454	13839
263.95569	13815
263.97687	13762
263.99805	13707
264.0192	13902
264.04037	14026
264.06152	13965
264.08267	13944
264.10385	13995
264.125	14045
264.14618	13962
264.16733	14006
264.18851	13972
264.20966	14049
264.23083	13986
264.25198	13854
264.27316	13858
264.29431	13949
264.31546	13968
264.33664	13953
264.35779	13919
264.37897	14039
264.40012	14002
264.42126	13925
264.44244	13852
264.46359	13948
264.48474	13926
264.50592	14001
264.52707	14054
264.54822	14103
264.5694	14047
264.59055	13975
264.61169	13915
264.63287	14012
264.65402	14026
264.67517	14064
264.69632	14176
264.7175	14249
264.73865	14261
264.7598	14251
264.78098	14287
264.80212	14374
264.82327	14372
264.84442	14437
264.86557	14417
264.88675	14391
264.9079	14349
264.92905	14333
264.9502	14383
264.97137	14498
264.99252	14599
265.01367	14514
265.03482	14507
265.05597	14676
265.07712	14765
265.0983	14797
265.11945	14787
265.14059	14660
265.16174	14734
265.18289	14705
265.20404	14684
265.22519	14799
265.24634	14853
265.26749	14860
265.28867	14765
265.30981	14740
265.33096	14728
265.35211	14689
265.37326	14805
265.39441	14904
265.41556	14985
265.43671	14889
265.45786	14954
265.479	15072
265.50015	14990
265.5213	15047
265.54245	15025
265.5636	15087
265.58475	15096
265.6059	14997
265.62704	14990
265.64819	15100
265.66934	15125
265.69049	15066
265.71164	15054
265.73279	15208
265.75394	15284
265.77509	15284
265.79623	15340
265.81735	15294
265.8385	15305
265.85965	15136
265.8808	15089
265.90195	15000
265.9231	14988
265.94424	14912
265.96539	15024
265.98654	15105
266.00766	15118
266.02881	15112
266.04996	15083
266.07111	15000
266.09225	14991
266.1134	15009
266.13452	15158
266.15567	15314
266.17682	15353
266.19797	15313
266.21909	15315
266.24023	15364
266.26138	15421
266.28253	15485
266.30368	15481
266.3248	15577
266.34595	15554
266.3671	15465
266.38821	15438
266.40936	15342
266.43051	15279
266.45166	15326
266.47278	15438
266.49393	15616
266.51508	15791
266.53619	15790
266.55734	15770
266.57849	15770
266.59961	15872
266.62076	16047
266.64191	16114
266.66302	16222
266.68417	16303
266.70529	16241
266.72644	16215
266.74759	16184
266.76871	16227
266.78986	16227
266.81097	16243
266.83212	16284
266.85327	16229
266.87439	16251
266.89554	16159
266.91666	16198
266.93781	16264
266.95892	16275
266.98007	16300
267.00119	16269
267.02234	16309
267.04346	16153
267.06461	16077
267.08572	16111
267.10687	16164
267.12799	16239
267.14914	16429
267.17026	16491
267.19141	16472
267.21252	16414
267.23367	16285
267.25479	16179
267.27591	16134
267.29706	16154
267.31818	16193
267.33932	16273
267.36044	16383
267.38156	16281
267.40271	16324
267.42383	16240
267.44498	16255
267.46609	16181
267.48721	16245
267.50836	16265
267.52948	16320
267.5506	16294
267.57175	16263
267.59286	16237
267.61398	16180
267.63513	16198
267.65625	16226
267.67737	16393
267.69849	16511
267.71964	16454
267.74075	16386
267.76187	16438
267.78299	16369
267.80414	16480
267.82526	16558
267.84637	16649
267.86749	16753
267.88864	16776
267.90976	16772
267.93088	16814
267.952	16898
267.97311	16857
267.99426	16922
268.01538	16957
268.0365	16889
268.05762	16920
268.07874	16899
268.09985	16934
268.121	16926
268.14212	16904
268.16324	16827
268.18436	16766
268.20547	16798
268.22659	16738
268.24771	16897
268.26883	16858
268.28995	16900
268.31107	16930
268.33218	17126
268.35333	17158
268.37445	17117
268.39557	17084
268.41669	17260
268.43781	17228
268.45892	17177
268.48004	17071
268.50116	17160
268.52228	17240
268.5434	17201
268.56451	17035
268.58563	17051
268.60675	17106
268.62787	17119
268.64899	17115
268.6701	17105
268.69122	17063
268.71231	16999
268.73343	16944
268.75455	17001
268.77567	17116
268.79678	17213
268.8179	17335
268.83902	17284
268.86014	17309
268.88126	17263
268.90237	17209
268.92346	17251
268.94458	17234
268.9657	17272
268.98682	17355
269.00793	17457
269.02905	17389
269.05014	17362
269.07126	17383
269.09238	17457
269.11349	17645
269.13461	17759
269.1557	17779
269.17682	17812
269.19794	17555
269.21906	17545
269.24014	17506
269.26126	17623
269.28238	17807
269.3035	17909
269.32458	17936
269.3457	17975
269.36682	17977
269.38794	17982
269.40903	17928
269.43015	17870
269.45126	17871
269.47235	17837
269.49347	17755
269.51459	17733
269.53568	17783
269.55679	17735
269.57791	17693
269.599	17589
269.62012	17668
269.6412	17846
269.66232	17930
269.68344	18008
269.70453	17962
269.72565	17851
269.74673	17917
269.76785	18094
269.78897	18257
269.81006	18282
269.83118	18245
269.85226	18326
269.87338	18402
269.89447	18384
269.91559	18232
269.93668	18275
269.95779	18295
269.97888	18308
270	18211
270.02109	18288
270.04221	18393
270.06329	18473
270.08441	18655
270.1055	18795
270.12662	18825
270.14771	18767
270.16879	18681
270.18991	18541
270.211	18517
270.23212	18547
270.2532	18722
270.27432	18812
270.29541	18898
270.3165	18803
270.33762	18657
270.3587	18573
270.37979	18597
270.40091	18625
270.422	18820
270.44308	18931
270.4642	19019
270.48529	19051
270.50638	18938
270.5275	19031
270.54858	19068
270.56967	19183
270.59079	19276
270.61188	19190
270.63297	19155
270.65405	19107
270.67517	19108
270.69626	19027
270.71735	19077
270.73843	19146
270.75955	19126
270.78064	19268
270.80173	19318
270.82281	19423
270.8439	19396
270.86502	19462
270.88611	19483
270.9072	19525
270.92828	19630
270.94937	19583
270.97049	19704
270.99158	19688
271.01266	19525
271.03375	19599
271.05484	19636
271.07593	19694
271.09702	19749
271.1181	19778
271.13919	19821
271.16031	19806
271.1814	19753
271.20248	19738
271.22357	19720
271.24466	19776
271.26575	19885
271.28683	19908
271.30792	19796
271.32901	19778
271.3501	19750
271.37119	19770
271.39227	19928
271.41336	19876
271.43445	19865
271.45554	19956
271.47662	20024
271.49771	20035
271.5188	20036
271.53989	19941
271.56097	19734
271.58206	19663
271.60315	19443
271.62424	19301
271.64532	19290
271.66638	19218
271.68747	19164
271.70856	19335
271.72964	19369
271.75073	19422
271.77182	19377
271.79291	19365
271.814	19371
271.83505	19364
271.85614	19419
271.87723	19656
271.89832	19812
271.9194	19832
271.94049	19794
271.96155	19780
271.98264	19945
272.00372	20046
272.02481	20162
272.04587	20064
272.06696	20129
272.08804	19983
272.10913	19929
272.13022	19746
272.15128	19783
272.17236	19788
272.19345	19830
272.21451	20061
272.2356	20240
272.25668	20284
272.27777	20144
272.29883	20097
272.31992	20119
272.341	20238
272.36206	20394
272.38315	20576
272.40424	20669
272.42529	20803
272.44638	20822
272.46744	20682
272.48853	20682
