Date and Time:                Mon Apr 25 12:46:57.000 2022
Software Version:             4.31.30023.0
Temperature (C):              -40
Model:                        DU940P_BU2
Data Type:                    Counts
Acquisition Mode:             Single Scan
Trigger Mode:                 Internal
Exposure Time (secs):         0.12
Readout Mode:                 Full Vertical Binning
Horizontal binning:           1
Extended Dynamic Range:       off
Horizontally flipped:         false
Vertical Shift Speed (usecs): 14.51
Pixel Readout Rate (MHz):     3
Baseline Clamp:               ON
Clock Amplitude:              Normal
Output Amplifier:             High Capacity
Serial Number:                23634
Pre-Amplifier Gain:           1.000000
Spurious Noise Filter Mode:   No Filter
Photon counted:               false
Data Averaging Filter Mode:   No Filter
SR500i:
Serial Number:                
Wavelength (nm):              397
Grating Groove Density (l/mm):2400
Grating Blaze:                BH
Output Flipper Port:          Direct
Accessory Output Port 1:      Off
Accessory Output Port 2:      Off
Accessory Output Port 3:      Off
Accessory Input Port:         On



388.1459	39407
388.15466	38229
388.16342	38659
388.17215	38859
388.18091	38807
388.18967	39026
388.19843	38669
388.20715	38828
388.21591	38859
388.22467	38867
388.2334	38959
388.24216	39024
388.25092	38818
388.25967	38997
388.2684	38909
388.27716	38927
388.28592	38766
388.29465	38930
388.30341	39065
388.31216	38952
388.32089	38786
388.32965	38737
388.33838	38641
388.34714	38770
388.3559	38388
388.36462	38399
388.37338	38479
388.38214	38004
388.39087	38027
388.39963	38213
388.40836	38367
388.41711	38399
388.42587	38450
388.4346	38605
388.44336	38403
388.45209	38382
388.46085	38147
388.46957	38295
388.47833	38332
388.48706	38522
388.49582	38297
388.50455	38548
388.51331	38485
388.52203	38582
388.53079	38615
388.53952	38741
388.54828	38379
388.55701	38381
388.56577	38439
388.57449	38522
388.58325	38523
388.59198	38726
388.60074	38576
388.60947	38693
388.61823	38462
388.62695	38479
388.63571	38447
388.64444	38317
388.65317	38479
388.66193	38834
388.67065	38661
388.67941	38412
388.68814	38563
388.69687	38804
388.70563	38501
388.71436	38446
388.72311	38601
388.73184	38609
388.74057	38398
388.74933	38452
388.75806	38715
388.76678	38566
388.77554	38391
388.78427	38154
388.793	38520
388.80176	38417
388.81049	38273
388.81921	38340
388.82797	38215
388.8367	38166
388.84543	38155
388.85416	37775
388.86292	38078
388.87164	37869
388.88037	37868
388.88913	38024
388.89786	37985
388.90659	38057
388.91531	37768
388.92407	38020
388.9328	37991
388.94153	37761
388.95026	38077
388.95898	38175
388.96774	38178
388.97647	38237
388.9852	38230
388.99393	38221
389.00266	38270
389.01141	38141
389.02014	38331
389.02887	38239
389.0376	38232
389.04633	38164
389.05505	38312
389.06378	38034
389.07254	38067
389.08127	38117
389.09	38141
389.09872	38094
389.10745	38387
389.11618	38690
389.12491	38650
389.13364	38554
389.14236	38318
389.15112	38408
389.15985	38698
389.16858	38376
389.17731	38668
389.18604	38904
389.19476	38656
389.20349	38606
389.21222	38732
389.22095	38555
389.22968	38356
389.2384	38531
389.24713	38466
389.25586	38568
389.26459	38261
389.27332	38511
389.28204	38419
389.29077	38507
389.2995	38548
389.30823	38483
389.31696	38687
389.32568	38390
389.33441	38398
389.34314	38259
389.35187	38213
389.3606	38325
389.36932	38418
389.37802	38544
389.38675	38468
389.39548	38814
389.40421	38615
389.41293	38497
389.42166	38583
389.43039	38361
389.43912	38150
389.44785	38349
389.45654	38228
389.46527	38253
389.474	38223
389.48273	38211
389.49146	38108
389.50018	38343
389.50891	38474
389.51761	38378
389.52634	38218
389.53506	38281
389.54379	38454
389.55252	38742
389.56122	38576
389.56995	39081
389.57867	38722
389.5874	38946
389.59613	38657
389.60483	38856
389.61356	38890
389.62228	38659
389.63101	38941
389.63971	38749
389.64844	38815
389.65717	38505
389.66586	38646
389.67459	38611
389.68332	38386
389.69205	38776
389.70074	38949
389.70947	38959
389.7182	38820
389.7269	38751
389.73563	38603
389.74435	38885
389.75305	38848
389.76178	39134
389.77051	39385
389.77921	39282
389.78793	39210
389.79666	39221
389.80536	39319
389.81409	39094
389.82278	39141
389.83151	39300
389.84024	39288
389.84894	39036
389.85767	39119
389.86636	39348
389.87509	38993
389.88382	38883
389.89252	39013
389.90125	38913
389.90994	38878
389.91867	38944
389.92737	38721
389.9361	39058
389.94479	38710
389.95352	38778
389.96222	38869
389.97095	39261
389.97964	39167
389.98837	39298
389.99707	39232
390.0058	39339
390.0145	39043
390.02322	39157
390.03192	39197
390.04065	39059
390.04935	39032
390.05807	39049
390.06677	38939
390.0755	38642
390.0842	39036
390.0929	39064
390.10162	38854
390.11032	38992
390.11905	38866
390.12775	38857
390.13644	38922
390.14517	38872
390.15387	39190
390.1626	39312
390.1713	39038
390.17999	39203
390.18872	39321
390.19742	39260
390.20612	39179
390.21484	38865
390.22354	39292
390.23224	38826
390.24097	39023
390.24966	39030
390.25836	39004
390.26709	38911
390.27579	38864
390.28448	39214
390.29318	39389
390.30191	39450
390.31061	39231
390.31931	39212
390.32803	39276
390.33673	39112
390.34543	39241
390.35413	39320
390.36285	39182
390.37155	39572
390.38025	39455
390.38895	39393
390.39764	39456
390.40637	39269
390.41507	39577
390.42377	39590
390.43246	39528
390.44116	39301
390.44989	39610
390.45859	39283
390.46729	39307
390.47598	39360
390.48468	39185
390.49338	39042
390.50208	39030
390.5108	39100
390.5195	39209
390.5282	39333
390.5369	39102
390.54559	39479
390.55429	39267
390.56299	39482
390.57169	39440
390.58038	39603
390.58908	39541
390.59781	39660
390.60651	39671
390.6152	39742
390.6239	39557
390.6326	39457
390.6413	39504
390.64999	39405
390.65869	39319
390.66739	39488
390.67609	39638
390.68478	39545
390.69348	39269
390.70218	39161
390.71088	39225
390.71957	39367
390.72827	38925
390.73697	39246
390.74567	39174
390.75436	39049
390.76306	38905
390.77176	39094
390.78046	39233
390.78912	39216
390.79782	38942
390.80652	39513
390.81522	39183
390.82391	39265
390.83261	39109
390.84131	39353
390.85001	39067
390.8587	39182
390.8674	39083
390.87607	39219
390.88477	39119
390.89346	39249
390.90216	39411
390.91086	39240
390.91956	39123
390.92825	39248
390.93692	39277
390.94562	39360
390.95432	39206
390.96301	39339
390.97171	39518
390.98038	39153
390.98907	39316
390.99777	39140
391.00647	39340
391.01517	39222
391.02383	39382
391.03253	39174
391.04123	39315
391.04993	39080
391.05859	38827
391.06729	39313
391.07599	39121
391.08469	39113
391.09335	39235
391.10205	39158
391.11075	39202
391.11942	39137
391.12811	39360
391.13681	39355
391.14548	39193
391.15417	39129
391.16287	39228
391.17154	39243
391.18024	39050
391.18893	39046
391.1976	39096
391.2063	39024
391.215	38818
391.22366	38750
391.23236	38725
391.24106	38839
391.24973	38373
391.25842	38792
391.26709	38643
391.27579	38781
391.28448	38712
391.29315	38615
391.30185	38723
391.31052	38478
391.31921	38547
391.32788	38766
391.33658	38876
391.34525	38942
391.35394	38954
391.36261	39092
391.37131	38838
391.38	38631
391.38867	38600
391.39737	38790
391.40604	38728
391.41473	38394
391.4234	38624
391.43207	38666
391.44077	38404
391.44943	38358
391.45813	38430
391.4668	38601
391.47549	38604
391.48416	39052
391.49286	38976
391.50153	38888
391.51019	38758
391.51889	38794
391.52756	38784
391.53625	38879
391.54492	38884
391.55359	38949
391.56229	38861
391.57095	38945
391.57965	38763
391.58832	38883
391.59698	38967
391.60568	38669
391.61435	38985
391.62302	39042
391.63171	39043
391.64038	38742
391.64905	38831
391.65775	38956
391.66641	39065
391.67508	38881
391.68378	38953
391.69244	38957
391.70111	38667
391.70978	38557
391.71848	38860
391.72714	38679
391.73581	38905
391.74451	38824
391.75317	39125
391.76184	39047
391.77051	39124
391.77917	39023
391.78787	38985
391.79654	38788
391.80521	38686
391.81387	38941
391.82257	38744
391.83124	38795
391.8399	38641
391.84857	38827
391.85724	38787
391.86591	38679
391.8746	38724
391.88327	38839
391.89194	38848
391.9006	38877
391.90927	38963
391.91794	39281
391.92661	39386
391.9353	39290
391.94397	39522
391.95264	39531
391.9613	39206
391.96997	39222
391.97864	39336
391.9873	39115
391.99597	39284
392.00464	39311
392.01331	39336
392.02197	39248
392.03064	39118
392.03931	39177
392.04797	39143
392.05664	39222
392.06534	39261
392.07401	39438
392.08267	39377
392.09134	39390
392.10001	39055
392.10867	39537
392.11734	39491
392.12598	39692
392.13464	39855
392.14331	39905
392.15198	39913
392.16064	39829
392.16931	39677
392.17798	39777
392.18665	39836
392.19531	39548
392.20398	39839
392.21265	39803
392.22131	39597
392.22998	39599
392.23865	39611
392.24731	39600
392.25595	39381
392.26462	39268
392.27328	39047
392.28195	39332
392.29062	39409
392.29929	39282
392.30795	39344
392.31659	39496
392.32526	39455
392.33392	39780
392.34259	39741
392.35126	39615
392.35992	39634
392.36856	39691
392.37723	39798
392.38589	39512
392.39456	39319
392.40323	39708
392.41187	39627
392.42053	39383
392.4292	39184
392.43787	39286
392.4465	39391
392.45517	39475
392.46384	39363
392.4725	39526
392.48114	39512
392.48981	39490
392.49847	39496
392.50711	39523
392.51578	39515
392.52444	39609
392.53308	39622
392.54175	39745
392.55042	39711
392.55905	39520
392.56772	39393
392.57639	39622
392.58502	39283
392.59369	39360
392.60236	39481
392.61099	39598
392.61966	39491
392.62833	39197
392.63696	39342
392.64563	39800
392.65427	39443
392.66293	39596
392.6716	39985
392.68024	39637
392.6889	39458
392.69754	39446
392.70621	39677
392.71484	39691
392.72351	39804
392.73215	39923
392.74081	39898
392.74948	40065
392.75812	39717
392.76678	39991
392.77542	40113
392.78409	39936
392.79272	39873
392.80139	39898
392.81003	39871
392.8187	39757
392.82733	39735
392.83597	39887
392.84464	39613
392.85327	39211
392.86194	39235
392.87057	39447
392.87924	39542
392.88788	39630
392.89655	39909
392.90518	39821
392.91382	39953
392.92249	39698
392.93112	40030
392.93979	39950
392.94843	39710
392.95706	39606
392.96573	39840
392.97437	39782
392.983	39930
392.99167	39789
393.00031	39833
393.00894	39621
393.01761	39464
393.02625	39418
393.03488	39505
393.04355	39556
393.05219	39294
393.06082	39212
393.06949	39337
393.07813	39440
393.08676	39076
393.09543	39140
393.10406	39244
393.1127	39184
393.12134	38996
393.13	39359
393.13864	39465
393.14728	39366
393.15591	39265
393.16455	39562
393.17322	39310
393.18185	39170
393.19049	39306
393.19913	39434
393.20779	39385
393.21643	39227
393.22507	39068
393.2337	39628
393.24234	39378
393.25098	39606
393.25964	39478
393.26828	39436
393.27692	39311
393.28555	39220
393.29419	39288
393.30283	39425
393.31146	39394
393.3201	39250
393.32877	39359
393.3374	39372
393.34604	39262
393.35468	39211
393.36331	39397
393.37195	39458
393.38058	39307
393.38922	39358
393.39786	39291
393.40649	39458
393.41513	39394
393.42377	39397
393.4324	39504
393.44104	39520
393.44968	39417
393.45831	39439
393.46695	39453
393.47559	39366
393.48422	39384
393.49286	39553
393.5015	39664
393.51013	39493
393.51877	39474
393.5274	39683
393.53604	39832
393.54468	39503
393.55331	39785
393.56195	39731
393.57059	39589
393.57922	39401
393.58786	39643
393.5965	39547
393.60513	39683
393.61374	39647
393.62238	39750
393.63101	39798
393.63965	39581
393.64828	39289
393.65692	39408
393.66556	39592
393.67419	39631
393.6828	39673
393.69144	39680
393.70007	40138
393.70871	39735
393.71735	39835
393.72598	39956
393.73459	40159
393.74323	40030
393.75186	39795
393.7605	40157
393.76913	40067
393.77774	39974
393.78638	39674
393.79501	39827
393.80365	39751
393.81226	39776
393.82089	39945
393.82953	40165
393.83817	40334
393.84677	39946
393.85541	39964
393.86404	40008
393.87265	40010
393.88129	40024
393.88992	40107
393.89853	40317
393.90717	40228
393.9158	39942
393.92444	40075
393.93304	40131
393.94168	39873
393.95029	39872
393.95892	40144
393.96756	40100
393.97617	39991
393.9848	39964
393.99344	39993
394.00204	40014
394.01068	39944
394.01929	39912
394.02792	40299
394.03656	39980
394.04517	39931
394.0538	39905
394.06241	39861
394.07104	39855
394.07965	39961
394.08829	40074
394.09689	40191
394.10553	40201
394.11417	40117
394.12277	40150
394.13141	40158
394.14001	39943
394.14865	39894
394.15726	39761
394.16589	40114
394.1745	39715
394.18314	39583
394.19174	39570
394.20035	39953
394.20898	39690
394.21759	39648
394.22623	39832
394.23483	39671
394.24347	39828
394.25208	39530
394.26071	39888
394.26932	40053
394.27792	40251
394.28656	40055
394.29517	40135
394.3038	40375
394.31241	39929
394.32101	40079
394.32965	40122
394.33826	40033
394.34686	39929
394.3555	40089
394.36411	40192
394.37271	39980
394.38135	39981
394.38995	40129
394.39856	40194
394.4072	40302
394.4158	40092
394.42441	40330
394.43304	40285
394.44165	40026
394.45026	40035
394.45886	40371
394.4675	40460
394.4761	40586
394.48471	40701
394.49332	40788
394.50195	40817
394.51056	40765
394.51917	40717
394.52777	40778
394.53641	40794
394.54501	40676
394.55362	40663
394.56223	40587
394.57083	40546
394.57944	40479
394.58807	40372
394.59668	40505
394.60529	40035
394.61389	40264
394.6225	40359
394.6311	40349
394.63974	40462
394.64835	40467
394.65695	40312
394.66556	40433
394.67416	40475
394.68277	40561
394.69138	40785
394.69998	40696
394.70859	40714
394.71719	40805
394.72583	40487
394.73444	40837
394.74304	40592
394.75165	40545
394.76025	40716
394.76886	40458
394.77747	40366
394.78607	40386
394.79468	40563
394.80328	40815
394.81189	40460
394.8205	40655
394.8291	40587
394.83771	40757
394.84631	40532
394.85492	40522
394.86353	40888
394.87213	40549
394.88074	40655
394.88934	40821
394.89795	40734
394.90656	40810
394.91516	40410
394.92374	40576
394.93234	40524
394.94095	40717
394.94955	40631
394.95816	40668
394.96677	40611
394.97537	40578
394.98398	40528
394.99258	40750
395.00116	40804
395.00977	40795
395.01837	40690
395.02698	40916
395.03558	40704
395.04419	40522
395.0528	40870
395.06137	40772
395.06998	40975
395.07858	41043
395.08719	40902
395.09579	41169
395.10437	41055
395.11298	40761
395.12158	40964
395.13019	41114
395.13876	41024
395.14737	41077
395.15598	40921
395.16458	41283
395.17316	41080
395.18176	40957
395.19037	40904
395.19897	40766
395.20755	40649
395.21616	40882
395.22476	40953
395.23334	41146
395.24194	41240
395.25055	41037
395.25912	41378
395.26773	41451
395.27634	41316
395.28491	41178
395.29352	41260
395.30212	41219
395.3107	41362
395.31931	41068
395.32791	41506
395.33649	41326
395.34509	41249
395.35367	41174
395.36227	41258
395.37088	41212
395.37946	41030
395.38806	41184
395.39664	41172
395.40524	41190
395.41382	40921
395.42242	40792
395.431	40975
395.43961	40508
395.44821	40674
395.45679	40562
395.46539	40699
395.47397	40561
395.48257	40687
395.49115	40827
395.49976	40722
395.50833	40617
395.51694	40619
395.52551	40638
395.53409	40839
395.54269	40911
395.55127	40777
395.55988	40773
395.56845	40841
395.57706	40966
395.58563	41030
395.59424	41189
395.60281	40918
395.61139	41106
395.62	40985
395.62857	40991
395.63718	40985
395.64575	40681
395.65433	40798
395.66293	41114
395.67151	40804
395.68008	40973
395.68869	41035
395.69727	41372
395.70584	41263
395.71445	41297
395.72302	41213
395.7316	41331
395.7402	41093
395.74878	41337
395.75735	41429
395.76596	41489
395.77454	41592
395.78311	41235
395.79169	41548
395.80029	41426
395.80887	41535
395.81744	41455
395.82602	41669
395.83463	41435
395.8432	41470
395.85178	41461
395.86035	41499
395.86893	41607
395.87753	41539
395.88611	41688
395.89468	41692
395.90326	41759
395.91183	41411
395.92044	41521
395.92902	41658
395.93759	41669
395.94617	41513
395.95474	42020
395.96332	42101
395.97192	41799
395.9805	41797
395.98907	41555
395.99765	41394
396.00623	41545
396.0148	41520
396.02338	41453
396.03195	41757
396.04053	41724
396.0491	41565
396.05768	41594
396.06628	41868
396.07486	41672
396.08344	41770
396.09201	41782
396.10059	41831
396.10916	41874
396.11774	41550
396.12631	41608
396.13489	41854
396.14346	41386
396.15204	41603
396.16061	41850
396.16919	42097
396.17776	42116
396.18634	41913
396.19492	41840
396.20349	42035
396.21207	42125
396.22061	42025
396.22919	42155
396.23776	42210
396.24634	42342
396.25491	42149
396.26349	42360
396.27206	42042
396.28064	42176
396.28922	42064
396.29779	42174
396.30637	41879
396.31491	42012
396.32349	41843
396.33206	42017
396.34064	42000
396.34921	42083
396.35779	42100
396.36636	42066
396.37491	41965
396.38348	41797
396.39206	41763
396.40063	41604
396.40921	41944
396.41776	41883
396.42633	41952
396.43491	42100
396.44348	41898
396.45203	42236
396.4606	42017
396.46918	42099
396.47775	41920
396.4863	42063
396.49487	41738
396.50345	41949
396.51202	41740
396.52057	41697
396.52914	41745
396.53772	41846
396.54626	41663
396.55484	41775
396.56342	41725
396.57199	41636
396.58054	41607
396.58911	41612
396.59766	41860
396.60623	41816
396.61481	41976
396.62335	42009
396.63193	41997
396.6405	41909
396.64905	41711
396.65762	41754
396.66617	41844
396.67474	41830
396.68332	41809
396.69186	41589
396.70044	41785
396.70898	41893
396.71756	41889
396.72614	41799
396.73468	42050
396.74326	41969
396.7518	41989
396.76038	42110
396.76892	41868
396.7775	42097
396.78604	41811
396.79462	41985
396.80316	42227
396.81174	42238
396.82028	42245
396.82886	42346
396.8374	42428
396.84598	42358
396.85452	42251
396.8631	42432
396.87164	42156
396.88019	42523
396.88876	42164
396.89731	42287
396.90588	42257
396.91443	42129
396.92297	41945
396.93155	42025
396.94009	42092
396.94867	42022
396.95721	42146
396.96576	42030
396.97433	42073
396.98288	42241
396.99142	42355
397	41357
397.00854	41553
397.01709	42719
397.02567	42290
397.03421	42358
397.04276	42315
397.05133	42477
397.05988	42405
397.06842	42313
397.077	42312
397.08554	42414
397.09409	42153
397.10263	42244
397.11121	42226
397.11975	42338
397.1283	42194
397.13684	42415
397.14542	42477
397.15396	42473
397.16251	42341
397.17105	42456
397.17963	42557
397.18817	42521
397.19672	42635
397.20526	42619
397.21381	42486
397.22235	42604
397.23093	42405
397.23947	42518
397.24802	42370
397.25656	42271
397.26511	42677
397.27365	42367
397.28223	42578
397.29077	42640
397.29932	42553
397.30786	42393
397.31641	42736
397.32495	42389
397.3335	42851
397.34204	42723
397.35059	42377
397.35913	42829
397.36768	42613
397.37622	42638
397.3848	42601
397.39334	42734
397.40189	43001
397.41043	42875
397.41898	43040
397.42752	42774
397.43607	42923
397.44461	42990
397.45316	42659
397.4617	42801
397.47025	43161
397.47879	42831
397.48734	42880
397.49588	42857
397.50439	42843
397.51294	42832
397.52148	42485
397.53003	42692
397.53857	42602
397.54712	42596
397.55566	42829
397.56421	42768
397.57275	42781
397.5813	43000
397.58984	43027
397.59839	42877
397.6069	42966
397.61545	42826
397.62399	42833
397.63254	43157
397.64108	42961
397.64963	42859
397.65817	42766
397.66669	42657
397.67523	42667
397.68378	42446
397.69232	42326
397.70087	42890
397.70938	42530
397.71793	42604
397.72647	42923
397.73502	42637
397.74356	42743
397.75208	42379
