Date and Time:                Sun Jan 29 15:04:12.000 2023
Software Version:             4.31.30023.0
Temperature (C):              -40
Model:                        DU940P_BU2
Data Type:                    Counts
Acquisition Mode:             Single Scan
Trigger Mode:                 Internal
Exposure Time (secs):         0.6
Readout Mode:                 Full Vertical Binning
Horizontal binning:           1
Extended Dynamic Range:       off
Horizontally flipped:         false
Vertical Shift Speed (usecs): 14.51
Pixel Readout Rate (MHz):     3
Baseline Clamp:               ON
Clock Amplitude:              Normal
Output Amplifier:             High Capacity
Serial Number:                23634
Pre-Amplifier Gain:           1.000000
Spurious Noise Filter Mode:   No Filter
Photon counted:               false
Data Averaging Filter Mode:   No Filter
SR500i:
Serial Number:                
Wavelength (nm):              269
Grating Groove Density (l/mm):1199.47
Grating Blaze:                500
Output Flipper Port:          Direct
Accessory Output Port 1:      Off
Accessory Output Port 2:      Off
Accessory Output Port 3:      Off
Accessory Input Port:         On



247.2984	6161
247.31972	5905
247.34102	5944
247.36234	5908
247.38365	5945
247.40495	6007
247.42627	6014
247.44759	5985
247.46889	5964
247.4902	5989
247.51151	5974
247.53282	5932
247.55412	5867
247.57544	5888
247.59674	5931
247.61806	5917
247.63936	5957
247.66068	5930
247.68198	5930
247.70329	5913
247.72459	5881
247.74591	5909
247.76721	5915
247.78853	5921
247.80983	5910
247.83113	5890
247.85245	5912
247.87375	5926
247.89505	5904
247.91637	5916
247.93767	5956
247.95897	5941
247.98029	5958
248.00159	5939
248.02289	5930
248.0442	5948
248.06551	5949
248.08681	5923
248.10811	5984
248.12943	6002
248.15073	5933
248.17203	5938
248.19333	5901
248.21463	5898
248.23595	5921
248.25725	5976
248.27855	5961
248.29985	5956
248.32115	5959
248.34245	5926
248.36375	5904
248.38506	5874
248.40636	5933
248.42767	5987
248.44897	5961
248.47028	5961
248.49158	5945
248.51288	5940
248.53418	5966
248.55548	6023
248.57678	5998
248.59808	5951
248.61938	5977
248.64069	6001
248.66197	5950
248.68327	5945
248.70457	5921
248.72588	5936
248.74718	5883
248.76848	5797
248.78978	5853
248.81108	5846
248.83238	5851
248.85367	5831
248.87497	5827
248.89627	5847
248.91757	5853
248.93887	5826
248.96016	5780
248.98146	5796
249.00276	5812
249.02406	5850
249.04535	5868
249.06665	5933
249.08795	5927
249.10924	5946
249.13054	5914
249.15184	5906
249.17313	5884
249.19443	5904
249.21573	5907
249.23701	5920
249.25832	5897
249.27962	5868
249.3009	5868
249.3222	5873
249.34349	5892
249.36479	5893
249.38608	5931
249.40738	5961
249.42867	5925
249.44997	5877
249.47125	5922
249.49255	5926
249.51384	5929
249.53514	6001
249.55643	6014
249.57773	6057
249.59901	6054
249.6203	6026
249.6416	6024
249.66289	5975
249.68419	6001
249.70547	5998
249.72676	6032
249.74806	6038
249.76935	6001
249.79063	6001
249.81194	6031
249.83322	6018
249.85451	5994
249.87579	6006
249.89709	6056
249.91838	5974
249.93967	6032
249.96095	5979
249.98225	5998
250.00354	5962
250.02483	6015
250.04611	6040
250.0674	6054
250.08868	6045
250.10999	6059
250.13127	6063
250.15256	6029
250.17384	6038
250.19513	6012
250.21642	6017
250.2377	6053
250.25899	6022
250.28027	6015
250.30156	6004
250.32285	6038
250.34413	6087
250.36542	6055
250.3867	6045
250.40799	6074
250.42928	6080
250.45056	6047
250.47185	6090
250.49313	6141
250.51442	6145
250.53571	6182
250.55699	6207
250.57828	6234
250.59955	6200
250.62083	6179
250.64212	6189
250.66341	6227
250.68469	6209
250.70598	6183
250.72725	6177
250.74854	6197
250.76982	6209
250.79111	6230
250.81238	6253
250.83366	6313
250.85495	6339
250.87624	6331
250.89751	6354
250.91879	6307
250.94008	6304
250.96135	6337
250.98264	6376
251.00392	6442
251.02519	6492
251.04648	6503
251.06775	6502
251.08904	6563
251.11031	6511
251.13159	6479
251.15288	6495
251.17415	6538
251.19543	6508
251.21671	6495
251.23799	6494
251.25926	6506
251.28055	6491
251.30182	6468
251.3231	6463
251.34438	6428
251.36565	6450
251.38693	6500
251.4082	6478
251.42949	6475
251.45076	6482
251.47203	6581
251.49332	6590
251.51459	6622
251.53586	6576
251.55714	6680
251.57841	6644
251.59969	6625
251.62097	6646
251.64224	6672
251.66351	6658
251.68478	6671
251.70607	6667
251.72734	6604
251.74861	6643
251.76988	6674
251.79115	6652
251.81244	6692
251.83371	6739
251.85498	6694
251.87625	6698
251.89752	6656
251.91879	6644
251.94006	6729
251.96133	6758
251.98262	6768
252.00389	6778
252.02516	6800
252.04643	6797
252.0677	6759
252.08897	6755
252.11024	6789
252.13152	6804
252.15279	6825
252.17406	6794
252.19533	6779
252.2166	6771
252.23787	6791
252.25912	6874
252.2804	6925
252.30167	6961
252.32294	6943
252.34421	6935
252.36548	6918
252.38675	6939
252.40802	6946
252.42928	7024
252.45055	7077
252.47182	7092
252.49309	7023
252.51436	7073
252.53561	7106
252.55688	7121
252.57816	7150
252.59941	7160
252.62068	7199
252.64195	7150
252.66322	7131
252.68448	7132
252.70575	7188
252.72702	7154
252.74828	7144
252.76955	7097
252.7908	7093
252.81207	7061
252.83334	7111
252.8546	7172
252.87587	7213
252.89713	7166
252.9184	7182
252.93965	7235
252.96092	7265
252.98218	7274
253.00345	7252
253.0247	7193
253.04597	7245
253.06723	7236
253.0885	7223
253.10976	7188
253.13103	7255
253.15228	7183
253.17354	7175
253.19481	7268
253.21606	7260
253.23732	7270
253.25859	7209
253.27985	7170
253.3011	7135
253.32237	7145
253.34363	7136
253.36488	7149
253.38615	7118
253.40741	7132
253.42867	7172
253.44992	7208
253.47118	7232
253.49245	7213
253.5137	7222
253.53496	7196
253.55621	7147
253.57747	7165
253.59874	7197
253.62	7224
253.64125	7186
253.66251	7237
253.68376	7241
253.70502	7229
253.72627	7287
253.74753	7308
253.76878	7351
253.79004	7289
253.81129	7331
253.83255	7334
253.85381	7323
253.87506	7317
253.89632	7344
253.91757	7340
253.93883	7350
253.96008	7344
253.98134	7337
254.00259	7390
254.02385	7437
254.0451	7377
254.06636	7413
254.0876	7381
254.10886	7414
254.13011	7464
254.15137	7474
254.17262	7449
254.19386	7493
254.21512	7515
254.23637	7521
254.25763	7472
254.27888	7492
254.30013	7442
254.32138	7481
254.34264	7467
254.36388	7550
254.38513	7576
254.40639	7589
254.42763	7635
254.44888	7641
254.47014	7706
254.49138	7698
254.51263	7686
254.53387	7662
254.55513	7647
254.57639	7675
254.59763	7657
254.61888	7682
254.64012	7706
254.66138	7736
254.68262	7723
254.70387	7693
254.72511	7667
254.74637	7743
254.76761	7701
254.78886	7676
254.8101	7781
254.83134	7829
254.8526	7864
254.87384	7877
254.8951	7911
254.91634	7842
254.93758	7900
254.95883	7906
254.98007	7905
255.00131	7986
255.02257	7963
255.04381	7929
255.06505	7938
255.0863	7873
255.10754	7918
255.12878	7913
255.15002	7988
255.17126	8033
255.19252	8066
255.21376	8085
255.235	8013
255.25624	7971
255.27748	7986
255.29874	8055
255.31998	8082
255.34122	8139
255.36246	8205
255.3837	8185
255.40494	8113
255.42618	8161
255.44742	8146
255.46866	8151
255.4899	8187
255.51114	8207
255.53238	8226
255.55362	8202
255.57486	8185
255.5961	8180
255.61734	8174
255.63858	8158
255.65982	8155
255.68106	8203
255.7023	8184
255.72354	8229
255.74478	8208
255.76601	8200
255.78725	8234
255.80849	8280
255.82973	8331
255.85097	8374
255.87221	8370
255.89343	8373
255.91467	8424
255.93591	8381
255.95715	8384
255.97838	8357
255.99962	8351
256.02084	8359
256.04208	8388
256.06332	8329
256.08456	8376
256.1058	8376
256.12704	8420
256.14825	8452
256.16949	8404
256.19073	8460
256.21198	8413
256.23322	8427
256.25443	8494
256.27567	8672
256.29691	8643
256.31815	8655
256.33936	8651
256.3606	8683
256.38184	8647
256.40308	8608
256.42429	8554
256.44553	8647
256.46677	8626
256.48801	8678
256.50922	8652
256.53046	8657
256.5517	8667
256.57291	8715
256.59415	8769
256.61539	8822
256.6366	8876
256.65784	8909
256.67908	8880
256.70029	8865
256.72153	8840
256.74277	8922
256.76398	9000
256.78522	9095
256.80646	9132
256.82767	9155
256.84891	9139
256.87012	9123
256.89136	9141
256.9126	9123
256.93381	9155
256.95505	9171
256.97626	9187
256.9975	9119
257.01871	9114
257.03995	9130
257.06116	9164
257.0824	9168
257.10361	9132
257.12485	9125
257.14609	9107
257.1673	9208
257.18854	9220
257.20975	9171
257.23099	9125
257.2522	9246
257.27341	9339
257.29465	9383
257.31586	9335
257.3371	9404
257.35831	9401
257.37955	9444
257.40076	9426
257.422	9390
257.44321	9359
257.46442	9401
257.48566	9379
257.50687	9349
257.52811	9450
257.54932	9451
257.57053	9507
257.59177	9436
257.61298	9472
257.63422	9528
257.65543	9424
257.67664	9363
257.69788	9359
257.71909	9459
257.7403	9427
257.76154	9529
257.78275	9574
257.80396	9612
257.8252	9552
257.84641	9454
257.86761	9491
257.88882	9546
257.91006	9612
257.93127	9623
257.95248	9627
257.97372	9655
257.99493	9611
258.01614	9618
258.03735	9714
258.05859	9770
258.0798	9759
258.10101	9759
258.12222	9751
258.14343	9787
258.16467	9724
258.18588	9782
258.20709	9786
258.2283	9850
258.24951	9904
258.27075	9898
258.29196	9920
258.31317	9977
258.33438	10093
258.35559	10024
258.3768	10034
258.39801	10046
258.41925	10030
258.44046	10056
258.46167	10108
258.48288	10114
258.50409	10155
258.5253	10161
258.54651	10091
258.56772	10001
258.58893	10046
258.61014	10069
258.63135	10194
258.65256	10169
258.6738	10227
258.69501	10179
258.71622	10202
258.73743	10215
258.75864	10225
258.77985	10261
258.80106	10312
258.82227	10349
258.84348	10285
258.86469	10283
258.88589	10345
258.9071	10400
258.92831	10386
258.94952	10326
258.9707	10360
258.99191	10474
259.01312	10450
259.03433	10486
259.05554	10465
259.07675	10430
259.09796	10459
259.11917	10373
259.14038	10309
259.16159	10302
259.1828	10306
259.20401	10289
259.22519	10348
259.2464	10479
259.26761	10464
259.28882	10423
259.31003	10390
259.33124	10369
259.35245	10432
259.37363	10555
259.39484	10624
259.41605	10694
259.43726	10726
259.45847	10660
259.47964	10687
259.50085	10770
259.52206	10757
259.54327	10823
259.56448	10867
259.58566	10880
259.60687	10846
259.62808	10796
259.64929	10766
259.67047	10781
259.69168	10819
259.71289	10837
259.73407	10949
259.75528	11014
259.77649	11084
259.7977	11048
259.81888	11011
259.84009	11101
259.8613	11092
259.88248	11128
259.90369	11265
259.9249	11280
259.94608	11305
259.96729	11265
259.98846	11212
260.00967	11167
260.03088	11205
260.05206	11278
260.07327	11325
260.09448	11347
260.11566	11328
260.13687	11269
260.15805	11274
260.17926	11252
260.20044	11344
260.22165	11332
260.24286	11397
260.26404	11454
260.28525	11510
260.30643	11421
260.32764	11378
260.34882	11528
260.37003	11581
260.3912	11544
260.41241	11633
260.43359	11666
260.4548	11628
260.47598	11622
260.49719	11573
260.51837	11471
260.53958	11536
260.56076	11495
260.58197	11546
260.60315	11649
260.62433	11719
260.64554	11672
260.66672	11747
260.68793	11750
260.70911	11740
260.73032	11762
260.7515	11761
260.77267	11792
260.79388	11788
260.81506	11779
260.83624	11777
260.85745	11740
260.87863	11789
260.89984	11791
260.92102	11851
260.9422	11947
260.96341	12018
260.98459	11988
261.00577	11912
261.02695	11921
261.04816	12043
261.06934	12146
261.09052	12156
261.11172	12234
261.1329	12257
261.15408	12296
261.17526	12302
261.19647	12354
261.21765	12311
261.23883	12232
261.26001	12276
261.28122	12314
261.3024	12283
261.32358	12210
261.34476	12277
261.36594	12223
261.38715	12191
261.40833	12160
261.4295	12151
261.45068	12141
261.47186	12040
261.49307	12158
261.51425	12076
261.53543	12170
261.55661	12162
261.57779	12264
261.59897	12295
261.62015	12311
261.64133	12326
261.66254	12397
261.68372	12381
261.7049	12363
261.72607	12331
261.74725	12335
261.76843	12373
261.78961	12396
261.81079	12290
261.83197	12242
261.85315	12294
261.87433	12329
261.89551	12379
261.91669	12334
261.93787	12341
261.95905	12310
261.98022	12258
262.0014	12238
262.02258	12343
262.04376	12526
262.06494	12512
262.08612	12505
262.1073	12525
262.12848	12437
262.14966	12484
262.17084	12472
262.19202	12442
262.2132	12462
262.23438	12534
262.25555	12478
262.27673	12486
262.29791	12483
262.31906	12431
262.34024	12572
262.36142	12711
262.3826	12715
262.40378	12772
262.42496	12747
262.44614	12765
262.46729	12676
262.48846	12775
262.50964	12777
262.53082	12910
262.552	13004
262.57318	13021
262.59433	12959
262.61551	13022
262.63669	13078
262.65787	13080
262.67905	13052
262.7002	13124
262.72137	13145
262.74255	13075
262.76373	13128
262.78488	13181
262.80606	13136
262.82724	13039
262.84842	12964
262.86957	12947
262.89075	13065
262.91193	13097
262.93307	13163
262.95425	13183
262.97543	13234
262.99658	13149
263.01776	13270
263.03894	13415
263.06009	13357
263.08127	13390
263.10245	13395
263.1236	13447
263.14478	13387
263.16595	13354
263.1871	13450
263.20828	13488
263.22943	13407
263.25061	13318
263.27179	13359
263.29294	13390
263.31412	13426
263.33527	13376
263.35645	13416
263.37759	13466
263.39877	13441
263.41992	13403
263.4411	13324
263.46228	13366
263.48343	13383
263.50461	13408
263.52576	13500
263.54694	13523
263.56808	13480
263.58926	13422
263.61041	13405
263.63156	13388
263.65274	13459
263.67389	13498
263.69507	13552
263.71622	13679
263.7374	13609
263.75854	13578
263.77972	13580
263.80087	13739
263.82202	13762
263.8432	13769
263.86435	13797
263.88553	13808
263.90668	13708
263.92783	13673
263.94901	13701
263.97015	13779
263.9913	13884
264.01248	13927
264.03363	13881
264.05478	13946
264.07596	14075
264.09711	14102
264.11826	14013
264.13943	14087
264.16058	14032
264.18173	13983
264.20288	14023
264.22406	14114
264.24521	14206
264.26636	14173
264.28754	14100
264.30869	14038
264.32983	14039
264.35098	14017
264.37213	14062
264.39331	14240
264.41446	14281
264.43561	14180
264.45676	14253
264.47791	14318
264.49908	14401
264.52023	14356
264.54138	14372
264.56253	14332
264.58368	14358
264.60483	14295
264.62601	14409
264.64716	14390
264.6683	14393
264.68945	14361
264.7106	14394
264.73175	14485
264.7529	14554
264.77405	14607
264.7952	14696
264.81638	14601
264.83752	14594
264.85867	14517
264.87982	14361
264.90097	14328
264.92212	14256
264.94327	14313
264.96442	14355
264.98557	14424
265.00671	14458
265.02786	14408
265.04901	14319
265.07016	14380
265.09131	14269
265.11246	14333
265.13361	14500
265.15475	14566
265.1759	14681
265.19705	14605
265.2182	14578
265.23935	14685
265.2605	14717
265.28162	14742
265.30276	14741
265.32391	14822
265.34506	14921
265.36621	14844
265.38736	14593
265.40851	14591
265.42966	14611
265.45081	14639
265.47192	14710
265.49307	14864
265.51422	14992
265.53537	15049
265.55652	14964
265.57767	15004
265.59879	15125
265.61993	15260
265.64108	15321
265.66223	15378
265.68338	15460
265.7045	15430
265.72565	15416
265.7468	15437
265.76794	15369
265.78909	15357
265.81021	15447
265.83136	15436
265.85251	15400
265.87363	15449
265.89478	15331
265.91592	15431
265.93707	15359
265.95819	15379
265.97934	15414
266.00049	15497
266.02161	15577
266.04276	15449
266.0639	15392
266.08502	15418
266.10617	15481
266.12732	15554
266.14844	15663
266.16959	15797
266.1907	15749
266.21185	15718
266.233	15664
266.25412	15519
266.27527	15479
266.29639	15528
266.31754	15508
266.33868	15654
266.3598	15767
266.38095	15647
266.40207	15705
266.42322	15723
266.44434	15672
266.46548	15699
266.4866	15654
266.50775	15688
266.52887	15807
266.55002	15798
266.57114	15824
266.59229	15777
266.6134	15691
266.63455	15716
266.65567	15777
266.67682	15939
266.69794	16059
266.71909	16040
266.7402	15977
266.76132	15913
266.78247	16010
266.80359	16004
266.82474	16129
266.84586	16214
266.867	16241
266.88812	16330
266.90924	16329
266.93039	16433
266.95151	16423
266.97263	16461
266.99377	16499
267.01489	16492
267.03601	16489
267.05716	16430
267.07828	16426
267.0994	16453
267.12054	16388
267.14166	16397
267.16278	16295
267.18393	16251
267.20505	16246
267.22617	16207
267.24728	16339
267.26843	16328
267.28955	16329
267.31067	16361
267.33179	16559
267.35294	16598
267.37405	16554
267.39517	16546
267.41629	16616
267.43741	16628
267.45856	16609
267.47968	16473
267.50079	16544
267.52191	16639
267.54303	16526
267.56415	16426
267.5853	16387
267.60641	16474
267.62753	16488
267.64865	16503
267.66977	16420
267.69089	16403
267.71201	16384
267.73312	16373
267.75424	16436
267.77539	16505
267.79651	16592
267.81763	16670
267.83875	16708
267.85986	16591
267.88098	16621
267.9021	16536
267.92322	16582
267.94434	16611
267.96545	16625
267.98657	16721
268.00769	16753
268.02881	16714
268.04993	16751
268.07104	16761
268.09216	16839
268.11328	16988
268.1344	17063
268.15552	17148
268.17664	17081
268.19775	16975
268.21887	16907
268.23996	16919
268.26108	16917
268.2822	17136
268.30331	17284
268.32443	17349
268.34555	17294
268.36667	17367
268.38779	17384
268.40891	17391
268.42999	17285
268.45111	17268
268.47223	17301
268.49335	17191
268.51447	17179
268.53558	17161
268.55667	17152
268.57779	17086
268.59891	16981
268.62003	17113
268.64114	17259
268.66223	17399
268.68335	17373
268.70447	17382
268.72559	17331
268.74667	17350
268.76779	17506
268.78891	17702
268.81003	17794
268.83112	17653
268.85223	17687
268.87335	17890
268.89444	17790
268.91556	17629
268.93668	17651
268.95776	17708
268.97888	17631
269	17670
269.02109	17763
269.04221	17737
269.06332	17948
269.08441	18025
269.10553	18122
269.12665	18224
269.14774	18121
269.16885	17954
269.18994	17917
269.21106	17949
269.23218	17940
269.25327	18059
269.27438	18087
269.29547	18153
269.31659	18082
269.33768	17919
269.3588	17913
269.37988	17981
269.401	18003
269.42209	18163
269.44321	18259
269.46429	18345
269.48541	18363
269.5065	18187
269.52762	18314
269.54871	18423
269.56982	18433
269.59091	18472
269.61203	18452
269.63312	18429
269.65424	18464
269.67532	18396
269.69641	18355
269.71753	18252
269.73862	18348
269.75974	18393
269.78082	18514
269.80191	18649
269.82303	18617
269.84412	18664
269.86523	18684
269.88632	18758
269.90741	18850
269.92853	18904
269.94962	18964
269.9707	18952
269.99182	18924
270.01291	18801
270.034	18828
270.05508	18917
270.0762	18925
270.09729	19020
270.11838	18989
270.1395	19052
270.16058	19033
270.18167	18995
270.20276	18981
270.22388	19027
270.24496	19050
270.26605	19058
270.28714	19123
270.30823	19115
270.32935	18998
270.35043	18963
270.37152	18952
270.39261	19186
270.4137	19103
270.43478	19145
270.4559	19181
270.47699	19330
270.49808	19230
270.51917	19312
270.54025	19083
270.56134	19062
270.58243	18994
270.60352	18733
270.62463	18651
270.64572	18544
270.66681	18518
270.6879	18452
270.70898	18535
270.73007	18620
270.75116	18614
270.77225	18654
270.79333	18686
270.81442	18683
270.83551	18630
270.8566	18716
270.87769	18847
270.89877	19025
270.91986	19143
270.94095	19038
270.96204	19043
270.98312	19181
271.00421	19294
271.0253	19319
271.04639	19293
271.06747	19360
271.08856	19256
271.10965	19096
271.13071	19028
271.15179	19042
271.17288	18962
271.19397	19034
271.21506	19218
271.23615	19507
271.25723	19571
271.27832	19364
271.29941	19325
271.32047	19339
271.34155	19516
271.36264	19631
271.38373	19772
271.40482	19959
271.42587	19951
271.44696	19858
271.46805	19928
271.48914	19845
271.51022	19783
