Date and Time:                Sun Jan 29 15:04:25.000 2023
Software Version:             4.31.30023.0
Temperature (C):              -40
Model:                        DU940P_BU2
Data Type:                    Counts
Acquisition Mode:             Single Scan
Trigger Mode:                 Internal
Exposure Time (secs):         0.6
Readout Mode:                 Full Vertical Binning
Horizontal binning:           1
Extended Dynamic Range:       off
Horizontally flipped:         false
Vertical Shift Speed (usecs): 14.51
Pixel Readout Rate (MHz):     3
Baseline Clamp:               ON
Clock Amplitude:              Normal
Output Amplifier:             High Capacity
Serial Number:                23634
Pre-Amplifier Gain:           1.000000
Spurious Noise Filter Mode:   No Filter
Photon counted:               false
Data Averaging Filter Mode:   No Filter
SR500i:
Serial Number:                
Wavelength (nm):              269
Grating Groove Density (l/mm):1199.47
Grating Blaze:                500
Output Flipper Port:          Direct
Accessory Output Port 1:      Off
Accessory Output Port 2:      Off
Accessory Output Port 3:      Off
Accessory Input Port:         On



247.2984	6186
247.31972	5965
247.34102	5972
247.36234	5925
247.38365	5965
247.40495	6062
247.42627	6032
247.44759	5992
247.46889	5954
247.4902	5954
247.51151	5941
247.53282	5882
247.55412	5886
247.57544	5912
247.59674	5928
247.61806	5922
247.63936	5908
247.66068	5922
247.68198	5915
247.70329	5962
247.72459	5890
247.74591	5938
247.76721	5899
247.78853	5920
247.80983	5893
247.83113	5932
247.85245	5934
247.87375	5923
247.89505	5950
247.91637	5939
247.93767	5923
247.95897	5914
247.98029	5952
248.00159	5946
248.02289	5959
248.0442	5939
248.06551	5989
248.08681	5919
248.10811	5961
248.12943	5953
248.15073	5957
248.17203	5925
248.19333	5886
248.21463	5886
248.23595	5919
248.25725	5936
248.27855	5945
248.29985	5946
248.32115	5908
248.34245	5901
248.36375	5908
248.38506	5917
248.40636	5916
248.42767	5924
248.44897	5974
248.47028	5946
248.49158	5926
248.51288	5963
248.53418	5972
248.55548	6037
248.57678	6013
248.59808	5965
248.61938	5946
248.64069	5956
248.66197	6029
248.68327	5936
248.70457	5937
248.72588	5902
248.74718	5886
248.76848	5816
248.78978	5817
248.81108	5845
248.83238	5824
248.85367	5824
248.87497	5846
248.89627	5802
248.91757	5833
248.93887	5818
248.96016	5766
248.98146	5775
249.00276	5865
249.02406	5895
249.04535	5881
249.06665	5895
249.08795	5918
249.10924	5895
249.13054	5971
249.15184	5913
249.17313	5886
249.19443	5911
249.21573	5908
249.23701	5894
249.25832	5881
249.27962	5864
249.3009	5892
249.3222	5852
249.34349	5895
249.36479	5916
249.38608	5937
249.40738	5901
249.42867	5956
249.44997	5897
249.47125	5907
249.49255	5941
249.51384	5943
249.53514	5954
249.55643	5988
249.57773	6052
249.59901	6036
249.6203	6026
249.6416	5990
249.66289	5971
249.68419	6005
249.70547	6037
249.72676	6060
249.74806	6065
249.76935	6044
249.79063	6010
249.81194	6031
249.83322	6029
249.85451	6014
249.87579	6011
249.89709	6042
249.91838	6022
249.93967	6005
249.96095	6021
249.98225	6015
250.00354	5983
250.02483	5997
250.04611	6038
250.0674	6041
250.08868	6054
250.10999	6056
250.13127	6059
250.15256	6057
250.17384	5998
250.19513	6034
250.21642	6074
250.2377	6067
250.25899	6037
250.28027	6015
250.30156	5975
250.32285	6049
250.34413	6067
250.36542	6068
250.3867	6040
250.40799	6048
250.42928	6084
250.45056	6087
250.47185	6089
250.49313	6120
250.51442	6150
250.53571	6188
250.55699	6180
250.57828	6213
250.59955	6223
250.62083	6177
250.64212	6185
250.66341	6192
250.68469	6206
250.70598	6189
250.72725	6200
250.74854	6200
250.76982	6187
250.79111	6203
250.81238	6265
250.83366	6300
250.85495	6319
250.87624	6340
250.89751	6304
250.91879	6326
250.94008	6308
250.96135	6398
250.98264	6368
251.00392	6434
251.02519	6486
251.04648	6486
251.06775	6517
251.08904	6538
251.11031	6496
251.13159	6495
251.15288	6513
251.17415	6491
251.19543	6520
251.21671	6520
251.23799	6474
251.25926	6494
251.28055	6492
251.30182	6478
251.3231	6455
251.34438	6439
251.36565	6489
251.38693	6434
251.4082	6494
251.42949	6503
251.45076	6534
251.47203	6545
251.49332	6604
251.51459	6588
251.53586	6616
251.55714	6658
251.57841	6664
251.59969	6664
251.62097	6663
251.64224	6627
251.66351	6651
251.68478	6658
251.70607	6641
251.72734	6587
251.74861	6624
251.76988	6634
251.79115	6664
251.81244	6735
251.83371	6683
251.85498	6670
251.87625	6661
251.89752	6654
251.91879	6633
251.94006	6680
251.96133	6706
251.98262	6777
252.00389	6736
252.02516	6797
252.04643	6779
252.0677	6700
252.08897	6729
252.11024	6772
252.13152	6762
252.15279	6821
252.17406	6825
252.19533	6775
252.2166	6808
252.23787	6791
252.25912	6872
252.2804	6916
252.30167	6923
252.32294	6933
252.34421	6927
252.36548	6882
252.38675	6964
252.40802	6958
252.42928	6986
252.45055	7056
252.47182	7090
252.49309	7138
252.51436	7065
252.53561	7095
252.55688	7119
252.57816	7172
252.59941	7169
252.62068	7195
252.64195	7129
252.66322	7154
252.68448	7174
252.70575	7207
252.72702	7163
252.74828	7142
252.76955	7116
252.7908	7114
252.81207	7103
252.83334	7162
252.8546	7183
252.87587	7233
252.89713	7195
252.9184	7153
252.93965	7246
252.96092	7247
252.98218	7275
253.00345	7258
253.0247	7225
253.04597	7234
253.06723	7201
253.0885	7245
253.10976	7212
253.13103	7206
253.15228	7213
253.17354	7183
253.19481	7263
253.21606	7228
253.23732	7219
253.25859	7199
253.27985	7143
253.3011	7107
253.32237	7101
253.34363	7124
253.36488	7128
253.38615	7128
253.40741	7193
253.42867	7164
253.44992	7189
253.47118	7205
253.49245	7212
253.5137	7194
253.53496	7239
253.55621	7172
253.57747	7160
253.59874	7174
253.62	7203
253.64125	7249
253.66251	7226
253.68376	7246
253.70502	7258
253.72627	7283
253.74753	7320
253.76878	7365
253.79004	7306
253.81129	7292
253.83255	7319
253.85381	7310
253.87506	7359
253.89632	7341
253.91757	7423
253.93883	7383
253.96008	7348
253.98134	7350
254.00259	7402
254.02385	7401
254.0451	7359
254.06636	7387
254.0876	7426
254.10886	7430
254.13011	7457
254.15137	7464
254.17262	7489
254.19386	7498
254.21512	7527
254.23637	7523
254.25763	7471
254.27888	7450
254.30013	7473
254.32138	7475
254.34264	7511
254.36388	7522
254.38513	7565
254.40639	7638
254.42763	7634
254.44888	7657
254.47014	7649
254.49138	7663
254.51263	7727
254.53387	7736
254.55513	7659
254.57639	7681
254.59763	7650
254.61888	7684
254.64012	7696
254.66138	7734
254.68262	7711
254.70387	7728
254.72511	7701
254.74637	7693
254.76761	7737
254.78886	7738
254.8101	7793
254.83134	7850
254.8526	7866
254.87384	7897
254.8951	7861
254.91634	7847
254.93758	7855
254.95883	7940
254.98007	7968
255.00131	7984
255.02257	7988
255.04381	7966
255.06505	7902
255.0863	7864
255.10754	7897
255.12878	7897
255.15002	7998
255.17126	8033
255.19252	8091
255.21376	8055
255.235	8003
255.25624	8025
255.27748	8001
255.29874	8057
255.31998	8088
255.34122	8147
255.36246	8206
255.3837	8177
255.40494	8180
255.42618	8170
255.44742	8197
255.46866	8150
255.4899	8196
255.51114	8230
255.53238	8244
255.55362	8204
255.57486	8159
255.5961	8210
255.61734	8203
255.63858	8172
255.65982	8183
255.68106	8139
255.7023	8161
255.72354	8225
255.74478	8186
255.76601	8211
255.78725	8198
255.80849	8242
255.82973	8285
255.85097	8418
255.87221	8370
255.89343	8408
255.91467	8401
255.93591	8390
255.95715	8329
255.97838	8323
255.99962	8346
256.02084	8362
256.04208	8353
256.06332	8320
256.08456	8360
256.1058	8384
256.12704	8427
256.14825	8439
256.16949	8414
256.19073	8433
256.21198	8433
256.23322	8457
256.25443	8491
256.27567	8628
256.29691	8673
256.31815	8622
256.33936	8664
256.3606	8678
256.38184	8641
256.40308	8613
256.42429	8612
256.44553	8663
256.46677	8684
256.48801	8694
256.50922	8691
256.53046	8722
256.5517	8644
256.57291	8688
256.59415	8744
256.61539	8838
256.6366	8869
256.65784	8846
256.67908	8905
256.70029	8845
256.72153	8860
256.74277	8900
256.76398	9014
256.78522	9071
256.80646	9089
256.82767	9074
256.84891	9161
256.87012	9123
256.89136	9119
256.9126	9123
256.93381	9146
256.95505	9181
256.97626	9162
256.9975	9176
257.01871	9094
257.03995	9170
257.06116	9136
257.0824	9168
257.10361	9101
257.12485	9101
257.14609	9103
257.1673	9134
257.18854	9180
257.20975	9167
257.23099	9145
257.2522	9219
257.27341	9320
257.29465	9391
257.31586	9380
257.3371	9373
257.35831	9379
257.37955	9406
257.40076	9438
257.422	9417
257.44321	9408
257.46442	9453
257.48566	9402
257.50687	9363
257.52811	9413
257.54932	9452
257.57053	9438
257.59177	9419
257.61298	9498
257.63422	9545
257.65543	9492
257.67664	9411
257.69788	9426
257.71909	9409
257.7403	9436
257.76154	9513
257.78275	9529
257.80396	9592
257.8252	9558
257.84641	9484
257.86761	9475
257.88882	9534
257.91006	9553
257.93127	9649
257.95248	9654
257.97372	9656
257.99493	9647
258.01614	9599
258.03735	9696
258.05859	9784
258.0798	9749
258.10101	9740
258.12222	9753
258.14343	9761
258.16467	9748
258.18588	9803
258.20709	9752
258.2283	9854
258.24951	9893
258.27075	9849
258.29196	9953
258.31317	10023
258.33438	10066
258.35559	10054
258.3768	10018
258.39801	10044
258.41925	10038
258.44046	10041
258.46167	10089
258.48288	10142
258.50409	10152
258.5253	10092
258.54651	10030
258.56772	10000
258.58893	10081
258.61014	10137
258.63135	10216
258.65256	10225
258.6738	10194
258.69501	10201
258.71622	10277
258.73743	10207
258.75864	10241
258.77985	10271
258.80106	10261
258.82227	10276
258.84348	10319
258.86469	10280
258.88589	10295
258.9071	10405
258.92831	10382
258.94952	10316
258.9707	10363
258.99191	10384
259.01312	10484
259.03433	10496
259.05554	10437
259.07675	10445
259.09796	10458
259.11917	10349
259.14038	10288
259.16159	10286
259.1828	10300
259.20401	10338
259.22519	10344
259.2464	10412
259.26761	10421
259.28882	10396
259.31003	10390
259.33124	10392
259.35245	10423
259.37363	10535
259.39484	10621
259.41605	10692
259.43726	10698
259.45847	10659
259.47964	10645
259.50085	10820
259.52206	10776
259.54327	10830
259.56448	10872
259.58566	10891
259.60687	10840
259.62808	10764
259.64929	10754
259.67047	10790
259.69168	10810
259.71289	10823
259.73407	10985
259.75528	11015
259.77649	11060
259.7977	10957
259.81888	11029
259.84009	11044
259.8613	11103
259.88248	11097
259.90369	11201
259.9249	11275
259.94608	11305
259.96729	11289
259.98846	11188
260.00967	11227
260.03088	11211
260.05206	11274
260.07327	11333
260.09448	11303
260.11566	11298
260.13687	11334
260.15805	11274
260.17926	11347
260.20044	11288
260.22165	11373
260.24286	11452
260.26404	11469
260.28525	11501
260.30643	11425
260.32764	11435
260.34882	11517
260.37003	11531
260.3912	11551
260.41241	11653
260.43359	11669
260.4548	11663
260.47598	11636
260.49719	11576
260.51837	11506
260.53958	11489
260.56076	11515
260.58197	11597
260.60315	11668
260.62433	11677
260.64554	11713
260.66672	11658
260.68793	11701
260.70911	11790
260.73032	11719
260.7515	11797
260.77267	11775
260.79388	11783
260.81506	11802
260.83624	11785
260.85745	11799
260.87863	11851
260.89984	11817
260.92102	11881
260.9422	11956
260.96341	12069
260.98459	11985
261.00577	11905
261.02695	11987
261.04816	12045
261.06934	12119
261.09052	12191
261.11172	12285
261.1329	12314
261.15408	12286
261.17526	12323
261.19647	12328
261.21765	12335
261.23883	12208
261.26001	12314
261.28122	12300
261.3024	12261
261.32358	12270
261.34476	12227
261.36594	12225
261.38715	12237
261.40833	12129
261.4295	12066
261.45068	12157
261.47186	12055
261.49307	12119
261.51425	12157
261.53543	12102
261.55661	12185
261.57779	12244
261.59897	12353
261.62015	12282
261.64133	12312
261.66254	12373
261.68372	12364
261.7049	12311
261.72607	12317
261.74725	12330
261.76843	12384
261.78961	12382
261.81079	12245
261.83197	12252
261.85315	12277
261.87433	12331
261.89551	12291
261.91669	12305
261.93787	12301
261.95905	12293
261.98022	12337
262.0014	12297
262.02258	12285
262.04376	12469
262.06494	12480
262.08612	12503
262.1073	12486
262.12848	12529
262.14966	12431
262.17084	12450
262.19202	12447
262.2132	12425
262.23438	12508
262.25555	12536
262.27673	12482
262.29791	12517
262.31906	12485
262.34024	12540
262.36142	12646
262.3826	12726
262.40378	12726
262.42496	12785
262.44614	12748
262.46729	12691
262.48846	12744
262.50964	12794
262.53082	12870
262.552	13061
262.57318	13056
262.59433	13066
262.61551	13028
262.63669	13025
262.65787	13038
262.67905	13032
262.7002	13075
262.72137	13167
262.74255	13172
262.76373	13142
262.78488	13135
262.80606	13113
262.82724	13038
262.84842	12930
262.86957	12923
262.89075	13085
262.91193	13129
262.93307	13202
262.95425	13196
262.97543	13152
262.99658	13124
263.01776	13268
263.03894	13398
263.06009	13431
263.08127	13350
263.10245	13403
263.1236	13429
263.14478	13447
263.16595	13423
263.1871	13408
263.20828	13472
263.22943	13467
263.25061	13350
263.27179	13314
263.29294	13436
263.31412	13415
263.33527	13419
263.35645	13319
263.37759	13543
263.39877	13488
263.41992	13396
263.4411	13382
263.46228	13369
263.48343	13377
263.50461	13415
263.52576	13454
263.54694	13518
263.56808	13453
263.58926	13446
263.61041	13362
263.63156	13431
263.65274	13435
263.67389	13484
263.69507	13571
263.71622	13665
263.7374	13705
263.75854	13584
263.77972	13656
263.80087	13710
263.82202	13772
263.8432	13713
263.86435	13778
263.88553	13733
263.90668	13686
263.92783	13654
263.94901	13691
263.97015	13762
263.9913	13926
264.01248	13960
264.03363	13875
264.05478	13984
264.07596	14067
264.09711	14103
264.11826	14059
264.13943	14049
264.16058	13983
264.18173	14002
264.20288	13996
264.22406	14130
264.24521	14144
264.26636	14187
264.28754	14120
264.30869	14084
264.32983	14081
264.35098	14042
264.37213	14097
264.39331	14268
264.41446	14232
264.43561	14192
264.45676	14174
264.47791	14331
264.49908	14362
264.52023	14386
264.54138	14367
264.56253	14360
264.58368	14387
264.60483	14329
264.62601	14320
264.64716	14385
264.6683	14426
264.68945	14408
264.7106	14402
264.73175	14529
264.7529	14629
264.77405	14669
264.7952	14660
264.81638	14613
264.83752	14592
264.85867	14465
264.87982	14373
264.90097	14309
264.92212	14347
264.94327	14279
264.96442	14342
264.98557	14441
265.00671	14455
265.02786	14392
265.04901	14339
265.07016	14324
265.09131	14280
265.11246	14311
265.13361	14461
265.15475	14591
265.1759	14693
265.19705	14583
265.2182	14528
265.23935	14637
265.2605	14721
265.28162	14730
265.30276	14763
265.32391	14820
265.34506	14856
265.36621	14829
265.38736	14710
265.40851	14651
265.42966	14604
265.45081	14625
265.47192	14727
265.49307	14936
265.51422	15059
265.53537	15013
265.55652	14946
265.57767	15036
265.59879	15060
265.61993	15220
265.64108	15299
265.66223	15423
265.68338	15482
265.7045	15489
265.72565	15368
265.7468	15396
265.76794	15438
265.78909	15365
265.81021	15366
265.83136	15441
265.85251	15428
265.87363	15374
265.89478	15372
265.91592	15346
265.93707	15404
265.95819	15445
265.97934	15439
266.00049	15505
266.02161	15510
266.04276	15433
266.0639	15314
266.08502	15395
266.10617	15426
266.12732	15488
266.14844	15655
266.16959	15798
266.1907	15826
266.21185	15753
266.233	15655
266.25412	15523
266.27527	15537
266.29639	15490
266.31754	15570
266.33868	15734
266.3598	15791
266.38095	15731
266.40207	15706
266.42322	15709
266.44434	15670
266.46548	15677
266.4866	15679
266.50775	15700
266.52887	15809
266.55002	15834
266.57114	15821
266.59229	15748
266.6134	15670
266.63455	15664
266.65567	15687
266.67682	15904
266.69794	16047
266.71909	16077
266.7402	16023
266.76132	15982
266.78247	15981
266.80359	16072
266.82474	16108
266.84586	16276
266.867	16294
266.88812	16370
266.90924	16312
266.93039	16413
266.95151	16464
266.97263	16423
266.99377	16485
267.01489	16483
267.03601	16488
267.05716	16455
267.07828	16458
267.0994	16429
267.12054	16393
267.14166	16371
267.16278	16325
267.18393	16230
267.20505	16155
267.22617	16183
267.24728	16317
267.26843	16372
267.28955	16328
267.31067	16382
267.33179	16454
267.35294	16553
267.37405	16566
267.39517	16559
267.41629	16639
267.43741	16626
267.45856	16586
267.47968	16497
267.50079	16562
267.52191	16632
267.54303	16513
267.56415	16383
267.5853	16380
267.60641	16456
267.62753	16470
267.64865	16456
267.66977	16437
267.69089	16426
267.71201	16349
267.73312	16372
267.75424	16396
267.77539	16488
267.79651	16594
267.81763	16626
267.83875	16598
267.85986	16609
267.88098	16622
267.9021	16628
267.92322	16645
267.94434	16578
267.96545	16653
267.98657	16744
268.00769	16794
268.02881	16756
268.04993	16713
268.07104	16709
268.09216	16775
268.11328	16933
268.1344	17111
268.15552	17126
268.17664	17080
268.19775	16970
268.21887	16895
268.23996	16876
268.26108	16923
268.2822	17125
268.30331	17268
268.32443	17307
268.34555	17303
268.36667	17368
268.38779	17353
268.40891	17409
268.42999	17275
268.45111	17281
268.47223	17249
268.49335	17125
268.51447	17233
268.53558	17158
268.55667	17126
268.57779	17121
268.59891	17028
268.62003	17133
268.64114	17266
268.66223	17391
268.68335	17426
268.70447	17346
268.72559	17294
268.74667	17350
268.76779	17511
268.78891	17688
268.81003	17733
268.83112	17659
268.85223	17697
268.87335	17849
268.89444	17806
268.91556	17581
268.93668	17698
268.95776	17704
268.97888	17616
269	17640
269.02109	17693
269.04221	17779
269.06332	17838
269.08441	18021
269.10553	18124
269.12665	18208
269.14774	18110
269.16885	18016
269.18994	17841
269.21106	17880
269.23218	17891
269.25327	18011
269.27438	18187
269.29547	18193
269.31659	18103
269.33768	17977
269.3588	17960
269.37988	17874
269.401	17963
269.42209	18123
269.44321	18259
269.46429	18285
269.48541	18352
269.5065	18237
269.52762	18293
269.54871	18403
269.56982	18453
269.59091	18474
269.61203	18452
269.63312	18468
269.65424	18465
269.67532	18358
269.69641	18338
269.71753	18334
269.73862	18327
269.75974	18397
269.78082	18568
269.80191	18603
269.82303	18670
269.84412	18656
269.86523	18596
269.88632	18695
269.90741	18796
269.92853	18894
269.94962	18971
269.9707	18903
269.99182	18890
270.01291	18783
270.034	18878
270.05508	18823
270.0762	18930
270.09729	18960
270.11838	18989
270.1395	19049
270.16058	19011
270.18167	19064
270.20276	18964
270.22388	18916
270.24496	19086
270.26605	19175
270.28714	19134
270.30823	19037
270.32935	19031
270.35043	19004
270.37152	19020
270.39261	19129
270.4137	19166
270.43478	19117
270.4559	19279
270.47699	19260
270.49808	19335
270.51917	19256
270.54025	19088
270.56134	19000
270.58243	18963
270.60352	18689
270.62463	18604
270.64572	18567
270.66681	18518
270.6879	18371
270.70898	18582
270.73007	18645
270.75116	18618
270.77225	18567
270.79333	18708
270.81442	18579
270.83551	18611
270.8566	18683
270.87769	18878
270.89877	19055
270.91986	19129
270.94095	19050
270.96204	19063
270.98312	19206
271.00421	19272
271.0253	19298
271.04639	19248
271.06747	19372
271.08856	19253
271.10965	19158
271.13071	19016
271.15179	19076
271.17288	19023
271.19397	19103
271.21506	19271
271.23615	19426
271.25723	19557
271.27832	19436
271.29941	19278
271.32047	19261
271.34155	19477
271.36264	19681
271.38373	19764
271.40482	19930
271.42587	19897
271.44696	19903
271.46805	19811
271.48914	19834
271.51022	19822
