Date and Time:                Thu Sep 8 17:00:23.000 2022
Software Version:             4.31.30023.0
Temperature (C):              -40
Model:                        DU940P_BU2
Data Type:                    Counts
Acquisition Mode:             Single Scan
Trigger Mode:                 Internal
Exposure Time (secs):         0.25
Readout Mode:                 Full Vertical Binning
Horizontal binning:           1
Extended Dynamic Range:       off
Horizontally flipped:         false
Vertical Shift Speed (usecs): 14.51
Pixel Readout Rate (MHz):     3
Baseline Clamp:               ON
Clock Amplitude:              Normal
Output Amplifier:             High Capacity
Serial Number:                23634
Pre-Amplifier Gain:           1.000000
Spurious Noise Filter Mode:   No Filter
Photon counted:               false
Data Averaging Filter Mode:   No Filter
SR500i:
Serial Number:                
Wavelength (nm):              277
Grating Groove Density (l/mm):1199.47
Grating Blaze:                500
Output Flipper Port:          Direct
Accessory Output Port 1:      Off
Accessory Output Port 2:      Off
Accessory Output Port 3:      Off
Accessory Input Port:         On



255.33896	5345
255.36023	5138
255.38152	5098
255.40279	5150
255.42406	5163
255.44533	5208
255.4666	5206
255.48787	5188
255.50914	5204
255.53041	5218
255.55168	5198
255.57295	5153
255.59422	5165
255.61549	5195
255.63676	5217
255.65805	5257
255.67931	5244
255.70058	5264
255.72185	5250
255.74312	5252
255.76439	5238
255.78566	5260
255.80693	5248
255.8282	5255
255.84947	5257
255.87074	5229
255.89201	5223
255.91328	5210
255.93454	5202
255.95581	5290
255.97708	5308
255.99835	5342
256.01962	5370
256.04089	5321
256.06216	5317
256.08344	5323
256.10468	5359
256.12595	5386
256.14722	5450
256.16849	5453
256.18976	5475
256.21103	5486
256.2323	5488
256.25354	5462
256.27481	5455
256.29608	5513
256.31735	5519
256.33862	5529
256.35986	5505
256.38113	5493
256.4024	5550
256.42368	5512
256.44495	5561
256.46619	5539
256.48746	5525
256.50873	5522
256.53	5530
256.55124	5532
256.57251	5558
256.59378	5596
256.61505	5601
256.63629	5673
256.65756	5674
256.67883	5694
256.7001	5655
256.72134	5684
256.74261	5685
256.76389	5632
256.78513	5676
256.8064	5661
256.82767	5676
256.84891	5639
256.87018	5610
256.89145	5614
256.91269	5646
256.93396	5661
256.95523	5640
256.97647	5681
256.99774	5652
257.01901	5668
257.04025	5633
257.06152	5670
257.08276	5694
257.10403	5700
257.12531	5724
257.14655	5726
257.16782	5778
257.18906	5739
257.21033	5724
257.23157	5701
257.25284	5748
257.27411	5766
257.29535	5784
257.31662	5756
257.33786	5783
257.35913	5717
257.38037	5759
257.40164	5783
257.42288	5807
257.44415	5871
257.46539	5876
257.48666	5868
257.5079	5862
257.52917	5833
257.55042	5874
257.57169	5903
257.59293	5968
257.6142	5990
257.63544	5981
257.65668	6000
257.67795	6036
257.69919	6070
257.72046	6061
257.7417	6064
257.76297	6052
257.78421	6035
257.80545	6051
257.82672	6030
257.84796	6044
257.86923	6064
257.89047	6084
257.91171	6012
257.93298	6044
257.95422	6025
257.97546	6078
257.99673	6084
258.01797	6088
258.03922	6071
258.06049	6067
258.08173	6126
258.10297	6107
258.12424	6139
258.14548	6232
258.16672	6214
258.18799	6196
258.20923	6208
258.23047	6192
258.25171	6199
258.27298	6207
258.29422	6250
258.31546	6184
258.3367	6214
258.35797	6220
258.37921	6283
258.40045	6294
258.42169	6327
258.44296	6341
258.4642	6271
258.48544	6263
258.50668	6262
258.52792	6233
258.54919	6287
258.57043	6331
258.59167	6387
258.61292	6375
258.63416	6379
258.6554	6350
258.67667	6371
258.69791	6366
258.71915	6395
258.74039	6403
258.76163	6460
258.78287	6445
258.80411	6456
258.82538	6454
258.84662	6527
258.86786	6543
258.8891	6516
258.91034	6569
258.93158	6621
258.95282	6577
258.97406	6569
258.9953	6580
259.01654	6598
259.03778	6635
259.05902	6617
259.08026	6649
259.1015	6680
259.12274	6749
259.14398	6777
259.16522	6743
259.18646	6739
259.2077	6797
259.22894	6783
259.25018	6765
259.27142	6796
259.29266	6851
259.3139	6845
259.33514	6816
259.35638	6770
259.37762	6784
259.39886	6822
259.4201	6890
259.44135	6923
259.46259	6894
259.48383	6895
259.50507	6906
259.52631	6939
259.54755	6874
259.56879	6945
259.59	6984
259.61124	7011
259.63248	6993
259.65372	7029
259.67496	6960
259.6962	6979
259.71744	6998
259.73865	7003
259.75989	7041
259.78113	7047
259.80237	7103
259.82361	7104
259.84485	7122
259.86606	7088
259.8873	7073
259.90854	7051
259.92978	6987
259.95102	7008
259.97223	7019
259.99347	6970
260.01471	6971
260.03595	7030
260.05716	7036
260.0784	7066
260.09964	7050
260.12088	7070
260.14209	7085
260.16333	7114
260.18457	7139
260.20581	7203
260.22702	7326
260.24826	7265
260.2695	7292
260.29071	7310
260.31195	7334
260.33319	7375
260.3544	7366
260.37564	7396
260.39688	7491
260.41809	7438
260.43933	7406
260.46057	7352
260.48178	7367
260.50302	7381
260.52423	7374
260.54547	7427
260.56671	7485
260.58792	7476
260.60916	7500
260.63037	7463
260.65161	7486
260.67285	7519
260.69406	7558
260.7153	7551
260.73651	7588
260.75775	7657
260.77896	7611
260.8002	7629
260.82141	7644
260.84265	7595
260.86389	7627
260.8851	7683
260.90634	7705
260.92755	7641
260.94879	7617
260.97	7658
260.99121	7693
261.01245	7705
261.03366	7742
261.0549	7645
261.07611	7673
261.09735	7692
261.11856	7688
261.1398	7697
261.16101	7719
261.18225	7719
261.20346	7781
261.22467	7845
261.24591	7863
261.26712	7854
261.28836	7810
261.30957	7779
261.33078	7767
261.35202	7781
261.37323	7756
261.39444	7782
261.41568	7824
261.43689	7787
261.4581	7806
261.47934	7833
261.50055	7885
261.52176	7882
261.543	7867
261.56421	7901
261.58542	7827
261.60666	7864
261.62787	7831
261.64908	7866
261.67032	7889
261.69153	7924
261.71274	7893
261.73395	7859
261.75519	7923
261.7764	7983
261.79761	7962
261.81882	7965
261.84006	7989
261.86127	8016
261.88248	8032
261.90369	8125
261.9249	8117
261.94614	8125
261.96735	8106
261.98856	8132
262.00977	8177
262.03098	8191
262.05222	8153
262.07343	8184
262.09464	8203
262.11584	8237
262.13705	8236
262.15826	8265
262.17947	8292
262.20071	8330
262.22192	8226
262.24313	8266
262.26434	8233
262.28555	8242
262.30676	8234
262.32797	8266
262.34918	8245
262.37039	8248
262.3916	8284
262.41281	8327
262.43402	8300
262.45523	8315
262.47647	8378
262.49768	8386
262.51889	8406
262.5401	8457
262.56131	8472
262.58252	8513
262.60373	8486
262.62494	8555
262.64615	8431
262.66736	8525
262.68857	8523
262.70978	8480
262.73099	8444
262.75217	8469
262.77338	8503
262.79459	8460
262.8158	8403
262.83701	8484
262.85822	8537
262.87943	8509
262.90063	8619
262.92184	8613
262.94305	8597
262.96426	8588
262.98547	8592
263.00665	8579
263.02786	8607
263.04907	8639
263.07028	8624
263.09149	8598
263.1127	8575
263.13391	8553
263.15509	8596
263.1763	8665
263.19751	8748
263.21872	8770
263.23993	8732
263.26114	8772
263.28232	8743
263.30353	8697
263.32474	8734
263.34595	8748
263.36713	8793
263.38834	8866
263.40955	8787
263.43076	8807
263.45193	8902
263.47314	8946
263.49435	8925
263.51556	8984
263.53674	8908
263.55795	8935
263.57916	8878
263.60034	8904
263.62155	8955
263.64276	8961
263.66397	8936
263.68515	8898
263.70636	8903
263.72757	8945
263.74875	8976
263.76996	9028
263.79117	9027
263.81235	9028
263.83356	9026
263.85474	9132
263.87595	9125
263.89716	9166
263.91833	9150
263.93954	9174
263.96072	9168
263.98193	9167
264.00314	9111
264.02432	9160
264.04553	9145
264.06671	9179
264.08792	9155
264.1091	9224
264.13031	9231
264.15149	9237
264.1727	9335
264.19388	9334
264.21509	9342
264.2363	9318
264.25748	9278
264.27869	9203
264.29987	9264
264.32104	9361
264.34225	9377
264.36343	9401
264.38464	9441
264.40582	9370
264.42703	9328
264.44821	9367
264.46942	9401
264.4906	9404
264.51181	9488
264.53299	9538
264.55417	9541
264.57538	9523
264.59656	9513
264.61777	9586
264.63895	9645
264.66013	9657
264.68134	9682
264.70251	9678
264.72369	9723
264.7449	9700
264.76608	9639
264.78726	9651
264.80847	9702
264.82965	9750
264.85083	9770
264.87204	9811
264.89322	9872
264.9144	9944
264.93561	9914
264.95679	9967
264.97797	9953
264.99915	10001
265.02036	9892
265.04153	9934
265.06271	10042
265.08389	10090
265.1051	10026
265.12628	9985
265.14746	9989
265.16864	9987
265.18985	10049
265.21103	10132
265.23221	10131
265.25339	10037
265.27457	10031
265.29578	10104
265.31696	10133
265.33813	10105
265.35931	10106
265.38049	10128
265.40167	10156
265.42285	10118
265.44406	10091
265.46524	10063
265.48642	10084
265.5076	10147
265.52878	10167
265.54996	10256
265.57114	10251
265.59232	10288
265.61349	10256
265.6347	10225
265.65588	10229
265.67706	10165
265.69824	10180
265.71942	10068
265.7406	10079
265.76178	10079
265.78296	10061
265.80414	10131
265.82532	10156
265.8465	10203
265.86768	10123
265.88885	10185
265.91003	10154
265.93121	10200
265.95239	10267
265.97357	10348
265.99475	10471
266.01593	10459
266.03711	10444
266.05829	10453
266.07947	10460
266.10065	10464
266.1218	10450
266.14297	10486
266.16415	10557
266.18533	10543
266.20651	10467
266.22769	10414
266.24887	10409
266.27005	10362
266.29123	10445
266.31238	10566
266.33356	10632
266.35474	10730
266.37592	10699
266.39709	10634
266.41827	10665
266.43945	10680
266.4606	10761
266.48178	10814
266.50296	10914
266.52414	10905
266.54532	10896
266.56647	10882
266.58765	10922
266.60883	10878
266.63	10912
266.65115	10916
266.67233	10931
266.69351	10933
266.71469	10872
266.73584	10865
266.75702	10822
266.7782	10848
266.79938	10818
266.82053	10813
266.84171	10890
266.86288	10824
266.88403	10866
266.90521	10844
266.92639	10916
266.94754	10928
266.96872	10970
266.9899	10989
267.01105	11069
267.03223	11025
267.05341	11063
267.07455	11046
267.09573	10985
267.11688	10905
267.13806	10966
267.15924	10962
267.18039	10995
267.20157	10772
267.22272	10836
267.2439	10852
267.26505	10851
267.28622	10896
267.3074	10835
267.32855	10830
267.34973	10838
267.37088	10907
267.39206	10970
267.41321	11035
267.43439	11139
267.45554	11180
267.47672	11136
267.49786	11161
267.51904	11083
267.54019	11106
267.56137	11143
267.58252	11108
267.6037	11180
267.62485	11200
267.646	11133
267.66718	11104
267.68832	11065
267.7095	11060
267.73065	11075
267.75183	11269
267.77298	11325
267.79413	11366
267.81531	11255
267.83646	11191
267.85764	11170
267.87878	11244
267.89993	11228
267.92111	11275
267.94226	11353
267.96341	11413
267.98459	11425
268.00574	11374
268.02689	11363
268.04807	11355
268.06921	11399
268.09036	11355
268.11154	11366
268.13269	11412
268.15384	11338
268.17499	11369
268.19617	11402
268.21732	11381
268.23846	11386
268.25961	11421
268.28079	11453
268.30194	11417
268.32309	11369
268.34424	11431
268.36542	11463
268.38657	11526
268.40771	11573
268.42886	11578
268.45001	11678
268.47119	11679
268.49234	11684
268.51349	11720
268.53464	11667
268.55579	11580
268.57693	11591
268.59808	11591
268.61926	11669
268.64041	11728
268.66156	11783
268.68271	11763
268.70386	11791
268.72501	11794
268.74615	11712
268.7673	11789
268.78845	11826
268.8096	11802
268.83078	11863
268.85193	11874
268.87308	11895
268.89423	11856
268.91537	11864
268.93652	11951
268.95767	12060
268.97882	12104
268.99997	12046
269.02112	12097
269.04227	12046
269.06342	12081
269.08456	12139
269.10571	12163
269.12686	12220
269.14801	12256
269.16916	12239
269.19031	12294
269.21143	12320
269.23257	12302
269.25372	12293
269.27487	12327
269.29602	12345
269.31717	12287
269.33832	12271
269.35947	12270
269.38062	12305
269.40176	12243
269.42291	12132
269.44403	12135
269.46518	12160
269.48633	12195
269.50748	12254
269.52863	12285
269.54977	12257
269.57089	12213
269.59204	12270
269.61319	12352
269.63434	12298
269.65549	12313
269.67661	12377
269.69775	12459
269.7189	12441
269.74005	12416
269.7612	12425
269.78232	12490
269.80347	12466
269.82462	12380
269.84576	12396
269.86688	12397
269.88803	12454
269.90918	12481
269.9303	12430
269.95145	12499
269.9726	12473
269.99371	12356
270.01486	12307
270.03601	12236
270.05716	12363
270.07828	12334
270.09943	12423
270.12054	12423
270.14169	12408
270.16284	12370
270.18396	12380
270.20511	12384
270.22626	12400
270.24738	12445
270.26852	12469
270.28964	12622
270.31079	12596
270.33194	12553
270.35306	12602
270.37421	12641
270.39532	12671
270.41647	12666
270.43759	12722
270.45874	12722
270.47986	12746
270.50101	12636
270.52213	12565
270.54327	12697
270.56439	12789
270.58554	12748
270.60666	12743
270.62781	12897
270.64893	12988
270.67007	12994
270.69119	12930
270.71234	12950
270.73346	12938
270.75461	13005
270.77573	13066
270.79684	13153
270.81799	13170
270.83911	13130
270.86026	13053
270.88138	13051
270.9025	13097
270.92365	13112
270.94476	13159
270.96591	13263
270.98703	13238
271.00815	13166
271.0293	13075
271.05042	13183
271.07153	13150
271.09268	13176
271.1138	13168
271.13492	13154
271.15607	13207
271.17719	13159
271.1983	13131
271.21942	13114
271.24057	13173
271.26169	13219
271.28281	13281
271.30396	13342
271.32507	13378
271.34619	13341
271.36731	13290
271.38843	13267
271.40958	13189
271.43069	13166
271.45181	13035
271.47293	13088
271.49408	13050
271.5152	13002
271.53632	13024
271.55743	13160
271.57855	13192
271.59967	13123
271.62082	13150
271.64194	13101
271.66306	13174
271.68417	13158
271.70529	13335
271.72641	13476
271.74753	13524
271.76865	13472
271.78979	13492
271.81091	13577
271.83203	13576
271.85315	13546
271.87427	13532
271.89539	13498
271.9165	13521
271.93762	13493
271.95874	13468
271.97986	13444
272.00098	13437
272.02209	13381
272.04321	13452
272.06433	13600
272.08545	13690
272.10657	13812
272.12769	13680
272.1488	13629
272.16992	13674
272.19104	13753
272.21216	13776
272.23328	13860
272.25439	13927
272.27551	14036
272.29663	13993
272.31775	13919
272.33884	13894
272.35995	13851
272.38107	13803
272.40219	13904
272.42331	13930
272.44443	13902
272.46555	13866
272.48666	13913
272.50778	13944
272.52887	13960
272.54999	13944
272.57111	13766
272.59222	13804
272.61334	13741
272.63446	13861
272.65555	13761
272.67667	13786
272.69778	13933
272.7189	14011
272.73999	14065
272.76111	14017
272.78223	14111
272.80334	14080
272.82446	14003
272.84555	14014
272.86667	14020
272.88779	14016
272.90887	14021
272.92999	13960
272.95111	13845
272.97223	13920
272.99332	13918
273.01443	13885
273.03555	13899
273.05664	13866
273.07776	13874
273.09888	13850
273.11996	13871
273.14108	13918
273.1622	14025
273.18329	14156
273.20441	14106
273.22549	14040
273.24661	14159
273.26773	14067
273.28882	14041
273.30994	14078
273.33102	14077
273.35214	14053
273.37323	14062
273.39435	14039
273.41547	13989
273.43655	13904
273.45767	13972
273.47876	14004
273.49988	14203
273.52097	14257
273.54208	14228
273.56317	14173
273.58429	14073
273.60538	14201
273.6265	14281
273.64758	14398
273.6687	14462
273.68979	14498
273.71091	14523
273.73199	14404
273.75308	14523
273.7742	14543
273.79529	14590
273.81641	14624
273.83749	14662
273.85858	14613
273.8797	14550
273.90079	14488
273.92191	14581
273.94299	14553
273.96408	14562
273.9852	14490
274.00629	14531
274.02737	14586
274.04849	14534
274.06958	14631
274.09067	14664
274.11179	14734
274.13287	14756
274.15396	14815
274.17508	14940
274.19617	14924
274.21725	14931
274.23834	15026
274.25946	14986
274.28055	14938
274.30164	14892
274.32272	14877
274.34384	14952
274.36493	14900
274.38602	14812
274.4071	14991
274.42822	14967
274.44931	14945
274.4704	14956
274.49149	14843
274.51257	14840
274.53366	14836
274.55478	14864
274.57587	14910
274.59695	14875
274.61804	14843
274.63913	14790
274.66022	14787
274.6813	15021
274.70242	15070
274.72351	14996
274.7446	15017
274.76569	15062
274.78677	15030
274.80786	14997
274.82895	15064
274.85004	15127
274.87112	15294
274.89221	15209
274.9133	15228
274.93439	15306
274.95547	15422
274.97656	15472
274.99765	15461
275.01874	15483
275.03983	15468
275.06091	15551
275.082	15442
275.10309	15564
275.12418	15539
275.14526	15574
275.16635	15442
275.18744	15428
275.20853	15355
275.22961	15428
275.2507	15526
275.27179	15634
275.29288	15540
275.31396	15454
275.33502	15561
275.35611	15601
275.3772	15586
275.39828	15591
275.41937	15775
275.44046	15709
275.46155	15720
275.4826	15627
275.50369	15797
275.52478	15702
275.54587	15696
275.56696	15637
275.58804	15617
275.6091	15766
275.63019	15816
275.65128	15736
275.67236	15696
275.69345	15658
275.71451	15595
275.7356	15529
275.75668	15544
275.77777	15501
275.79883	15527
275.81992	15454
275.841	15564
275.86206	15578
275.88315	15556
275.90424	15581
275.92529	15582
275.94638	15557
275.96747	15537
275.98853	15604
276.00961	15738
276.0307	15757
276.05176	15751
276.07285	15717
276.09393	15739
276.11499	15865
276.13608	15951
276.15717	15983
276.17822	15970
276.19931	15949
276.22037	15922
276.24146	15843
276.26251	15872
276.2836	16009
276.30469	16107
276.32574	16137
276.34683	16260
276.36789	16427
276.38898	16493
276.41003	16399
276.43112	16405
276.45218	16345
276.47327	16276
276.49432	16243
276.51541	16309
276.53647	16391
276.55756	16446
276.57861	16439
276.5997	16434
276.62076	16490
276.64182	16440
276.6629	16458
276.68396	16502
276.70505	16630
276.7261	16541
276.74719	16499
276.76825	16482
276.78931	16583
276.81039	16656
276.83145	16659
276.85251	16627
276.8736	16746
276.89465	16662
276.91574	16592
276.9368	16532
276.95786	16638
276.97891	16684
277	16785
277.02106	16761
277.04211	16852
277.0632	16938
277.08426	16992
277.10532	17051
277.1264	17091
277.14746	17048
277.16852	17004
277.18958	16988
277.21066	17007
277.23172	16965
277.25278	16922
277.27383	17088
277.29489	17090
277.31598	17143
277.33704	17116
277.35809	17040
277.37915	17114
277.40021	17117
277.42126	17211
277.44235	17471
277.46341	17649
277.48447	17658
277.50552	17552
277.52658	17580
277.54764	17599
277.5687	17621
277.58978	17601
277.61084	17610
277.6319	17647
277.65295	17638
277.67401	17608
277.69507	17506
277.71613	17471
277.73718	17409
277.75824	17547
277.7793	17749
277.80035	17845
277.82141	17973
277.84247	17811
277.86353	17809
277.88458	17802
277.90564	17987
277.9267	18049
277.94775	18181
277.96881	18297
277.98987	18358
278.01093	18316
278.03198	18283
278.05304	18373
278.0741	18370
278.09515	18371
278.11621	18462
278.13727	18414
278.15833	18384
278.17935	18332
278.20041	18275
278.22147	18276
278.24252	18254
278.26358	18280
278.28464	18281
278.30569	18300
278.32672	18203
278.34778	18214
278.36884	18205
278.38989	18370
278.41095	18483
278.43201	18482
278.45303	18705
278.47409	18756
278.49515	18703
278.5162	18655
278.53723	18635
278.55829	18571
278.57935	18464
278.6004	18355
278.62143	18312
278.64249	18322
278.66354	18147
278.6846	18094
278.70563	18120
278.72668	18193
278.74774	18311
278.76877	18278
278.78983	18287
278.81088	18317
278.83191	18314
278.85297	18403
278.87402	18382
278.89505	18633
278.91611	18734
278.93716	18656
278.95819	18664
278.97925	18774
279.00027	18811
279.02133	18773
279.04239	18821
279.06342	18837
279.08447	18774
279.1055	18710
279.12656	18703
279.14758	18635
279.16864	18712
279.1897	18750
279.21072	19031
279.23178	19120
279.25281	19182
279.27386	19088
279.29489	19086
279.31595	19065
279.33698	19127
279.35803	19261
279.37906	19394
279.40009	19519
279.42114	19674
