Date and Time:                Sat Jan 28 16:40:29.000 2023
Software Version:             4.31.30023.0
Temperature (C):              -40
Model:                        DU940P_BU2
Data Type:                    Counts
Acquisition Mode:             Single Scan
Trigger Mode:                 Internal
Exposure Time (secs):         3.5
Readout Mode:                 Full Vertical Binning
Horizontal binning:           1
Extended Dynamic Range:       off
Horizontally flipped:         false
Vertical Shift Speed (usecs): 14.51
Pixel Readout Rate (MHz):     3
Baseline Clamp:               ON
Clock Amplitude:              Normal
Output Amplifier:             High Capacity
Serial Number:                23634
Pre-Amplifier Gain:           1.000000
Spurious Noise Filter Mode:   No Filter
Photon counted:               false
Data Averaging Filter Mode:   No Filter
SR500i:
Serial Number:                
Wavelength (nm):              229
Grating Groove Density (l/mm):1199.47
Grating Blaze:                500
Output Flipper Port:          Direct
Accessory Output Port 1:      Off
Accessory Output Port 2:      Off
Accessory Output Port 3:      Off
Accessory Input Port:         On



207.10411	11661
207.12561	11117
207.14709	11089
207.16859	11113
207.19009	11127
207.21158	11215
207.23308	11255
207.25456	11237
207.27606	11188
207.29755	11129
207.31905	11146
207.34053	11012
207.36203	10985
207.38351	11043
207.40501	11082
207.4265	11112
207.448	11175
207.46948	11179
207.49098	11168
207.51247	11213
207.53397	11191
207.55545	11224
207.57695	11198
207.59843	11212
207.61992	11224
207.64142	11218
207.6629	11265
207.68439	11325
207.70589	11365
207.72737	11292
207.74886	11338
207.77036	11344
207.79184	11353
207.81332	11277
207.83482	11350
207.85631	11409
207.87779	11401
207.89928	11431
207.92078	11447
207.94226	11506
207.96375	11466
207.98523	11431
208.00671	11425
208.02821	11375
208.0497	11381
208.07118	11474
208.09267	11442
208.11415	11449
208.13564	11491
208.15712	11470
208.17862	11456
208.2001	11485
208.22159	11489
208.24307	11573
208.26456	11518
208.28604	11563
208.30753	11536
208.32901	11591
208.35049	11613
208.37198	11609
208.39346	11602
208.41495	11621
208.43643	11582
208.45792	11607
208.4794	11650
208.50089	11621
208.52237	11544
208.54385	11534
208.56534	11546
208.58681	11384
208.60829	11491
208.62978	11511
208.65126	11498
208.67274	11521
208.69423	11506
208.71571	11481
208.7372	11447
208.75867	11460
208.78015	11480
208.80164	11504
208.82312	11490
208.84459	11487
208.86607	11504
208.88756	11544
208.90904	11501
208.93051	11584
208.952	11667
208.97348	11558
208.99496	11550
209.01643	11592
209.03792	11554
209.0594	11607
209.08087	11564
209.10236	11560
209.12384	11610
209.14531	11698
209.16679	11623
209.18826	11595
209.20975	11698
209.23123	11676
209.2527	11683
209.27419	11653
209.29565	11653
209.31714	11706
209.33861	11689
209.36009	11705
209.38156	11794
209.40305	11807
209.42451	11766
209.446	11696
209.46747	11670
209.48895	11672
209.51042	11650
209.53191	11727
209.55338	11779
209.57484	11725
209.59633	11716
209.6178	11749
209.63927	11768
209.66075	11755
209.68222	11707
209.7037	11737
209.72517	11827
209.74664	11714
209.76813	11655
209.7896	11737
209.81107	11703
209.83253	11667
209.85402	11654
209.87549	11646
209.89696	11725
209.91843	11712
209.93991	11676
209.96138	11648
209.98285	11635
210.00432	11631
210.02579	11598
210.04726	11588
210.06874	11697
210.09021	11616
210.11168	11588
210.13315	11589
210.15462	11590
210.17609	11661
210.19756	11548
210.21902	11598
210.24049	11648
210.26198	11647
210.28345	11671
210.30492	11723
210.32639	11805
210.34785	11771
210.36932	11798
210.39079	11835
210.41226	11818
210.43373	11871
210.4552	11843
210.47665	11796
210.49812	11849
210.51959	11838
210.54106	11840
210.56253	11818
210.584	11830
210.60547	11913
210.62694	11946
210.64841	11958
210.66988	12022
210.69133	12108
210.7128	12096
210.73427	12157
210.75574	12016
210.77721	12073
210.79866	12056
210.82013	12131
210.8416	12208
210.86307	12231
210.88452	12250
210.90599	12246
210.92746	12251
210.94893	12282
210.97038	12262
210.99185	12299
211.01332	12341
211.03477	12271
211.05624	12340
211.0777	12289
211.09917	12287
211.12064	12341
211.14209	12235
211.16356	12217
211.18501	12219
211.20648	12169
211.22795	12217
211.2494	12260
211.27087	12213
211.29233	12265
211.3138	12280
211.33525	12361
211.35672	12405
211.37817	12412
211.39964	12407
211.4211	12471
211.44257	12487
211.46402	12438
211.48547	12389
211.50694	12376
211.5284	12386
211.54987	12304
211.57132	12272
211.59277	12336
211.61424	12458
211.6357	12410
211.65715	12403
211.67862	12381
211.70007	12405
211.72153	12415
211.743	12370
211.76445	12393
211.7859	12539
211.80736	12542
211.82883	12543
211.85028	12577
211.87173	12534
211.89319	12552
211.91466	12483
211.93611	12521
211.95757	12517
211.97902	12509
212.00047	12508
212.02193	12435
212.0434	12441
212.06485	12431
212.0863	12421
212.10776	12500
212.12921	12607
212.15067	12633
212.17212	12657
212.19357	12636
212.21503	12635
212.23648	12636
212.25793	12612
212.27939	12678
212.30084	12801
212.3223	12844
212.34375	12799
212.3652	12763
212.38666	12756
212.40811	12804
212.42957	12784
212.45102	12752
212.47247	12784
212.49393	12775
212.51538	12706
212.53683	12681
212.55827	12701
212.57973	12752
212.60118	12654
212.62263	12608
212.64409	12566
212.66554	12541
212.68698	12521
212.70844	12571
212.72989	12671
212.75134	12675
212.77278	12712
212.79424	12736
212.81569	12809
212.83714	12803
212.85858	12770
212.88004	12701
212.90149	12646
212.92293	12645
212.94438	12622
212.96584	12607
212.98727	12635
213.00873	12487
213.03017	12437
213.05162	12503
213.07307	12492
213.09451	12477
213.11597	12438
213.13741	12350
213.15886	12393
213.1803	12380
213.20175	12360
213.22319	12446
213.24464	12472
213.26608	12534
213.28754	12525
213.30898	12495
213.33043	12494
213.35187	12494
213.37332	12478
213.39476	12548
213.41621	12413
213.43765	12441
213.45909	12466
213.48055	12462
213.50198	12420
213.52342	12428
213.54488	12414
213.56631	12450
213.58775	12542
213.60921	12606
213.63065	12577
213.65208	12447
213.67354	12492
213.69498	12463
213.71642	12452
213.73785	12507
213.75931	12569
213.78075	12615
213.80219	12526
213.82362	12506
213.84506	12516
213.8665	12501
213.88795	12533
213.90939	12586
213.93083	12509
213.95227	12470
213.97371	12451
213.99515	12500
214.01659	12523
214.03802	12529
214.05946	12506
214.08092	12573
214.10236	12570
214.12379	12544
214.14523	12536
214.16667	12506
214.18811	12509
214.20955	12479
214.23099	12574
214.25243	12622
214.27385	12651
214.29529	12660
214.31673	12648
214.33817	12665
214.3596	12753
214.38104	12749
214.40248	12697
214.42392	12617
214.44536	12673
214.46678	12686
214.48822	12696
214.50966	12779
214.5311	12790
214.55254	12753
214.57397	12705
214.5954	12663
214.61684	12684
214.63828	12682
214.65971	12710
214.68114	12745
214.70258	12781
214.72401	12794
214.74544	12856
214.76688	12838
214.78831	12895
214.80974	12813
214.83118	12907
214.85262	12912
214.87404	12936
214.89548	12931
214.9169	12879
214.93834	12874
214.95978	12858
214.9812	12889
215.00264	12927
215.02406	13021
215.0455	13064
215.06693	13080
215.08836	13015
215.10979	12951
215.13123	12909
215.15265	12945
215.17409	12851
215.19551	12935
215.21695	13022
215.23837	13020
215.25981	13042
215.28123	12905
215.30266	12865
215.3241	12822
215.34552	12879
215.36694	12952
215.38838	13031
215.40981	12944
215.43123	12898
215.45267	12865
215.47409	12903
215.49551	12889
215.51695	12889
215.53838	12861
215.5598	12912
215.58122	12905
215.60266	12895
215.62408	12862
215.64551	12860
215.66693	12842
215.68835	12833
215.70978	12943
215.73122	12938
215.75264	13024
215.77406	12989
215.79549	13019
215.81691	12988
215.83833	12850
215.85976	12836
215.88118	12796
215.9026	12844
215.92403	12801
215.94547	12750
215.96689	12790
215.98831	12812
216.00974	12840
216.03116	12787
216.05258	12764
216.07399	12813
216.09541	12814
216.11684	12708
216.13826	12854
216.15968	12985
216.18111	12946
216.20253	12918
216.22395	12843
216.24538	12921
216.2668	12883
216.28821	12813
216.30963	12841
216.33105	12823
216.35248	12850
216.3739	12885
216.39532	12843
216.41673	12833
216.43816	12873
216.45958	12857
216.481	12965
216.50241	12975
216.52383	13062
216.54526	13009
216.56667	13036
216.58809	12923
216.60951	12969
216.63092	13012
216.65234	13093
216.67377	13137
216.69518	13176
216.7166	13196
216.73802	13194
216.75943	13130
216.78085	13169
216.80226	13132
216.82368	13167
216.84509	13164
216.86652	13076
216.88792	13023
216.90935	13020
216.93076	13053
216.95218	13024
216.97359	13086
216.99501	12968
217.01642	12937
217.03784	12938
217.05925	12993
217.08066	12963
217.10208	12927
217.12349	12916
217.14491	12951
217.16632	13072
217.18773	13136
217.20915	13108
217.23056	13126
217.25197	13077
217.27339	13060
217.2948	13007
217.31621	12988
217.33762	12923
217.35904	12937
217.38045	12914
217.40186	12883
217.42326	12891
217.44469	12935
217.46609	12958
217.4875	12895
217.50891	12908
217.53032	12894
217.55173	12870
217.57315	12814
217.59456	12797
217.61597	12917
217.63737	12911
217.65878	12955
217.68019	12961
217.7016	13048
217.72301	12952
217.74442	12880
217.76582	12924
217.78723	12983
217.80864	12972
217.83005	12987
217.85146	12885
217.87286	12875
217.89427	12818
217.91568	12897
217.93709	12978
217.9585	13085
217.9799	13130
218.00131	13146
218.02271	13105
218.04411	13042
218.06552	13059
218.08693	13142
218.10834	13172
218.12975	13198
218.15115	13286
218.17255	13274
218.19395	13248
218.21536	13274
218.23677	13311
218.25816	13280
218.27957	13251
218.30098	13244
218.32239	13262
218.34378	13232
218.36519	13186
218.3866	13231
218.40799	13269
218.4294	13306
218.45079	13135
218.4722	13158
218.49361	13141
218.515	13194
218.53641	13211
218.5578	13217
218.57921	13146
218.60062	13112
218.62201	13093
218.64342	13147
218.66481	13124
218.68622	13130
218.70761	13198
218.72902	13130
218.75041	13029
218.77182	13022
218.79321	13008
218.81461	13184
218.83601	13102
218.85741	12895
218.87881	12899
218.90021	12914
218.9216	12935
218.94301	12885
218.9644	12909
218.98579	12828
219.0072	12800
219.02859	12715
219.04999	12687
219.0714	12764
219.09279	12732
219.11418	12791
219.13557	12786
219.15698	12812
219.17838	12727
219.19977	12704
219.22116	12648
219.24255	12637
219.26396	12657
219.28535	12670
219.30675	12698
219.32814	12764
219.34953	12749
219.37093	12658
219.39232	12735
219.41371	12747
219.4351	12825
219.45651	12841
219.47791	12748
219.4993	12791
219.52069	12824
219.54208	12778
219.56348	12733
219.58487	12764
219.60626	12838
219.62766	12825
219.64905	12849
219.67043	12877
219.69182	12956
219.71321	12884
219.7346	12923
219.756	12970
219.77739	12946
219.79878	12932
219.82018	12952
219.84157	13036
219.86295	12975
219.88434	12924
219.90573	12861
219.92712	12855
219.94852	12827
219.96989	12868
219.99129	12938
220.01268	12983
220.03406	12931
220.05545	12934
220.07684	12946
220.09824	12966
220.11961	12871
220.14101	12920
220.1624	12991
220.18378	13026
220.20517	12960
220.22655	12968
220.24794	12991
220.26933	13012
220.29071	13099
220.3121	13066
220.33348	13107
220.35487	13068
220.37625	13033
220.39764	13012
220.41902	12941
220.44041	12867
220.46179	12884
220.48318	12883
220.50456	12941
220.52596	12953
220.54733	12920
220.56873	12877
220.5901	12993
220.61148	12935
220.63287	12981
220.65425	12952
220.67564	13030
220.69702	13134
220.7184	13034
220.73978	13021
220.76117	12985
220.78255	13022
220.80392	13078
220.82532	13017
220.84669	13049
220.86807	13123
220.88945	13254
220.91084	13134
220.93222	13136
220.9536	13116
220.97498	13162
220.99635	13238
221.01773	13238
221.03912	13283
221.0605	13271
221.08188	13312
221.10326	13256
221.12463	13203
221.14601	13225
221.16739	13142
221.18877	13180
221.21014	13250
221.23152	13156
221.2529	13150
221.27428	13147
221.29565	13177
221.31703	13070
221.33841	13056
221.35979	13021
221.38116	13034
221.40254	13000
221.42392	12973
221.4453	12990
221.46667	12920
221.48805	13019
221.50943	13094
221.53079	13153
221.55217	13189
221.57355	13253
221.59492	13329
221.6163	13330
221.63766	13347
221.65904	13266
221.68042	13226
221.7018	13261
221.72316	13233
221.74454	13174
221.76591	13136
221.78729	13162
221.80865	13124
221.83003	13113
221.85141	13126
221.87277	13109
221.89415	13058
221.91553	13022
221.93689	13022
221.95827	13180
221.97963	13238
222.00101	13264
222.02237	13206
222.04375	13163
222.06512	13220
222.08649	13185
222.10786	13118
222.12923	13161
222.1506	13144
222.17197	13149
222.19333	13102
222.21471	13109
222.23607	13135
222.25745	13071
222.27881	13145
222.30019	13252
222.32155	13375
222.34291	13344
222.36429	13281
222.38565	13233
222.40701	13221
222.42839	13266
222.44975	13285
222.47112	13402
222.49249	13479
222.51385	13482
222.53522	13433
222.55658	13494
222.57796	13481
222.59932	13419
222.62068	13411
222.64204	13413
222.66341	13451
222.68478	13405
222.70615	13328
222.72751	13325
222.74887	13281
222.77023	13307
222.7916	13253
222.81296	13193
222.83432	13257
222.85568	13262
222.87704	13332
222.89841	13290
222.91977	13306
222.94115	13244
222.96251	13335
222.98386	13418
223.00522	13346
223.02658	13405
223.04794	13423
223.06931	13362
223.09067	13328
223.11203	13346
223.13339	13306
223.15475	13329
223.17612	13279
223.19748	13204
223.21884	13228
223.24019	13246
223.26155	13284
223.28291	13245
223.30428	13228
223.32564	13245
223.34698	13219
223.36835	13134
223.38971	13150
223.41107	13197
223.43242	13289
223.45378	13276
223.47514	13241
223.49649	13299
223.51785	13272
223.53922	13147
223.56056	13142
223.58192	13172
223.60329	13187
223.62463	13202
223.646	13202
223.66734	13200
223.68871	13243
223.71005	13117
223.73141	13175
223.75276	13297
223.77412	13304
223.79547	13287
223.81683	13254
223.83818	13194
223.85954	13182
223.88089	13163
223.90225	13207
223.9236	13321
223.94496	13418
223.96631	13428
223.98766	13322
224.00902	13333
224.03036	13396
224.05171	13371
224.07307	13293
224.09442	13370
224.11577	13354
224.13713	13312
224.15848	13318
224.17982	13350
224.20117	13337
224.22253	13329
224.24388	13230
224.26523	13257
224.28658	13197
224.30794	13195
224.32928	13235
224.35063	13227
224.37198	13326
224.39333	13222
224.41467	13294
224.43602	13402
224.45737	13369
224.47873	13332
224.50008	13386
224.52142	13363
224.54277	13262
224.56412	13251
224.58546	13300
224.60681	13312
224.62816	13360
224.64951	13239
224.67085	13224
224.6922	13261
224.71355	13401
224.73488	13388
224.75623	13331
224.77757	13372
224.79892	13322
224.82027	13296
224.84161	13174
224.86296	13198
224.88431	13153
224.90564	13210
224.92699	13227
224.94833	13275
224.96968	13264
224.99103	13156
225.01236	13125
225.03371	13088
225.05505	13042
225.0764	13122
225.09773	13151
225.11908	13253
225.14043	13228
225.16176	13119
225.18311	13187
225.20445	13247
225.22578	13224
225.24713	13191
225.26846	13246
225.28981	13260
225.31116	13231
225.33249	13268
225.35384	13188
225.37517	13157
225.39651	13174
225.41785	13196
225.43919	13257
225.46053	13340
225.48187	13408
225.5032	13386
225.52455	13377
225.54588	13405
225.56721	13500
225.58856	13525
225.60989	13505
225.63124	13567
225.65257	13677
225.6739	13585
225.69525	13449
225.71658	13482
225.73792	13469
225.75925	13464
225.78059	13553
225.80193	13609
225.82326	13609
225.8446	13547
225.86594	13527
225.88727	13527
225.9086	13542
225.92993	13538
225.95128	13617
225.97261	13666
225.99394	13624
226.01527	13531
226.03661	13496
226.05794	13517
226.07927	13556
226.1006	13583
226.12193	13594
226.14328	13661
226.16461	13742
226.18594	13600
226.20728	13505
226.22861	13429
226.24994	13425
226.27127	13408
226.2926	13388
226.31392	13460
226.33525	13529
226.35658	13373
226.37791	13363
226.39925	13434
226.42058	13430
226.44191	13464
226.46324	13524
226.48457	13492
226.50589	13563
226.52722	13490
226.54855	13578
226.56989	13513
226.59122	13452
226.61253	13450
226.63387	13437
226.6552	13576
226.67653	13628
226.69785	13684
226.71918	13585
226.74051	13559
226.76183	13541
226.78316	13630
226.80449	13595
226.82581	13691
226.84714	13780
226.86845	13815
226.88979	13790
226.91112	13802
226.93243	13854
226.95377	13759
226.97508	13892
226.99641	13951
227.01773	13867
227.03906	13814
227.06038	13810
227.08171	13816
227.10303	13850
227.12436	13863
227.14568	13829
227.16701	13725
227.18832	13703
227.20964	13745
227.23097	13756
227.25229	13833
227.27361	13777
227.29494	13869
227.31625	13884
227.33757	13960
227.3589	13926
227.38022	13987
227.40154	13994
227.42285	14026
227.44418	13996
227.4655	13856
227.48682	13954
227.50813	13904
227.52946	13897
227.55078	13830
227.5721	13788
227.59341	13857
227.61473	13788
227.63605	13803
227.65736	13798
227.67868	13809
227.70001	13730
227.72133	13783
227.74265	13887
227.76396	13997
227.78528	14014
227.80659	14028
227.82791	14018
227.84923	14019
227.87054	14035
227.89186	14010
227.91318	14089
227.93448	14167
227.9558	14197
227.97711	14289
227.99843	14260
228.01974	14232
228.04106	14255
228.06238	14246
228.08369	14333
228.105	14581
228.12631	14662
228.14763	14829
228.16895	14785
228.19026	14651
228.21156	14640
228.23288	14702
228.2542	14768
228.27551	14885
228.29681	14986
228.31813	15059
228.33945	15115
228.36075	15125
228.38206	15136
228.40338	15132
228.42468	15065
228.446	15132
228.4673	15199
228.48862	15051
228.50992	15035
228.53123	15018
228.55255	15023
228.57385	15005
228.59517	15060
228.61647	15173
228.63779	15231
228.65909	15179
228.68039	15277
228.70171	15337
228.72301	15399
228.74432	15429
228.76563	15603
228.78694	15714
228.80824	15755
228.82954	15812
228.85086	15883
228.87216	16007
228.89346	15954
228.91478	15960
228.93608	15921
228.95738	15979
228.97868	15982
229	16014
229.0213	16096
229.0426	16261
229.0639	16360
229.08522	16523
229.10652	16594
229.12782	16673
229.14912	16679
229.17043	16647
229.19173	16661
229.21303	16738
229.23433	16757
229.25565	16904
229.27695	16967
229.29825	17022
229.31955	16963
229.34085	16833
229.36215	16820
229.38345	16842
229.40475	16912
229.42606	16953
229.44736	16981
229.46866	17024
229.48996	16982
229.51126	16949
229.53255	17017
229.55385	17066
229.57515	17044
229.59645	17003
229.61775	16958
229.63905	16885
229.66035	16864
229.68164	16809
229.70294	16714
229.72424	16705
229.74554	16739
229.76683	16675
229.78813	16670
229.80943	16626
229.83073	16686
229.85202	16604
229.87332	16549
229.89462	16498
229.91591	16425
229.93721	16420
229.95851	16426
229.9798	16324
230.0011	16309
230.02238	16117
230.04369	16032
230.06499	16024
230.08627	16066
230.10757	16023
230.12886	15967
230.15016	15953
230.17145	15908
230.19275	15826
230.21404	15857
230.23534	15829
230.25662	15816
230.27791	15799
230.29921	15778
230.3205	15676
230.3418	15665
230.36308	15649
230.38437	15670
230.40567	15641
230.42696	15542
230.44824	15514
230.46954	15528
230.49083	15559
230.51212	15477
230.5334	15398
230.5547	15364
230.57599	15337
230.59727	15215
230.61856	15002
230.63985	14938
230.66115	14936
230.68243	14865
230.70372	14843
230.72501	14864
230.74629	14911
230.76758	14924
230.78886	14794
230.81015	14822
230.83145	14796
230.85274	14748
230.87402	14817
