Date and Time:                Sat Jan 28 16:53:43.000 2023
Software Version:             4.31.30023.0
Temperature (C):              -40
Model:                        DU940P_BU2
Data Type:                    Counts
Acquisition Mode:             Single Scan
Trigger Mode:                 Internal
Exposure Time (secs):         3.5
Readout Mode:                 Full Vertical Binning
Horizontal binning:           1
Extended Dynamic Range:       off
Horizontally flipped:         false
Vertical Shift Speed (usecs): 14.51
Pixel Readout Rate (MHz):     3
Baseline Clamp:               ON
Clock Amplitude:              Normal
Output Amplifier:             High Capacity
Serial Number:                23634
Pre-Amplifier Gain:           1.000000
Spurious Noise Filter Mode:   No Filter
Photon counted:               false
Data Averaging Filter Mode:   No Filter
SR500i:
Serial Number:                
Wavelength (nm):              229
Grating Groove Density (l/mm):1199.47
Grating Blaze:                500
Output Flipper Port:          Direct
Accessory Output Port 1:      Off
Accessory Output Port 2:      Off
Accessory Output Port 3:      Off
Accessory Input Port:         On



207.10411	11653
207.12561	11096
207.14709	11123
207.16859	11074
207.19009	11087
207.21158	11158
207.23308	11233
207.25456	11185
207.27606	11181
207.29755	11098
207.31905	11092
207.34053	11009
207.36203	10998
207.38351	11056
207.40501	11074
207.4265	11084
207.448	11111
207.46948	11139
207.49098	11199
207.51247	11164
207.53397	11093
207.55545	11168
207.57695	11222
207.59843	11214
207.61992	11188
207.64142	11271
207.6629	11282
207.68439	11353
207.70589	11316
207.72737	11353
207.74886	11294
207.77036	11314
207.79184	11393
207.81332	11318
207.83482	11338
207.85631	11336
207.87779	11375
207.89928	11391
207.92078	11445
207.94226	11489
207.96375	11509
207.98523	11390
208.00671	11368
208.02821	11326
208.0497	11390
208.07118	11431
208.09267	11450
208.11415	11435
208.13564	11489
208.15712	11507
208.17862	11449
208.2001	11461
208.22159	11423
208.24307	11574
208.26456	11545
208.28604	11564
208.30753	11554
208.32901	11563
208.35049	11624
208.37198	11628
208.39346	11593
208.41495	11607
208.43643	11578
208.45792	11600
208.4794	11578
208.50089	11599
208.52237	11556
208.54385	11522
208.56534	11452
208.58681	11448
208.60829	11494
208.62978	11532
208.65126	11492
208.67274	11507
208.69423	11483
208.71571	11509
208.7372	11412
208.75867	11463
208.78015	11448
208.80164	11457
208.82312	11479
208.84459	11476
208.86607	11480
208.88756	11494
208.90904	11528
208.93051	11597
208.952	11669
208.97348	11610
208.99496	11540
209.01643	11539
209.03792	11550
209.0594	11568
209.08087	11537
209.10236	11520
209.12384	11578
209.14531	11642
209.16679	11602
209.18826	11574
209.20975	11648
209.23123	11661
209.2527	11644
209.27419	11671
209.29565	11692
209.31714	11659
209.33861	11702
209.36009	11685
209.38156	11751
209.40305	11836
209.42451	11717
209.446	11694
209.46747	11679
209.48895	11652
209.51042	11700
209.53191	11750
209.55338	11776
209.57484	11783
209.59633	11709
209.6178	11703
209.63927	11754
209.66075	11711
209.68222	11757
209.7037	11778
209.72517	11782
209.74664	11718
209.76813	11690
209.7896	11677
209.81107	11726
209.83253	11733
209.85402	11644
209.87549	11688
209.89696	11677
209.91843	11694
209.93991	11672
209.96138	11645
209.98285	11608
210.00432	11570
210.02579	11609
210.04726	11641
210.06874	11637
210.09021	11608
210.11168	11566
210.13315	11596
210.15462	11626
210.17609	11651
210.19756	11596
210.21902	11596
210.24049	11603
210.26198	11657
210.28345	11630
210.30492	11682
210.32639	11713
210.34785	11807
210.36932	11761
210.39079	11839
210.41226	11879
210.43373	11880
210.4552	11894
210.47665	11905
210.49812	11866
210.51959	11803
210.54106	11786
210.56253	11784
210.584	11849
210.60547	11906
210.62694	11941
210.64841	11971
210.66988	12020
210.69133	12084
210.7128	12093
210.73427	12098
210.75574	12045
210.77721	12069
210.79866	12099
210.82013	12100
210.8416	12236
210.86307	12211
210.88452	12252
210.90599	12227
210.92746	12214
210.94893	12246
210.97038	12274
210.99185	12242
211.01332	12317
211.03477	12291
211.05624	12220
211.0777	12298
211.09917	12354
211.12064	12313
211.14209	12238
211.16356	12158
211.18501	12192
211.20648	12245
211.22795	12249
211.2494	12202
211.27087	12196
211.29233	12226
211.3138	12262
211.33525	12258
211.35672	12333
211.37817	12336
211.39964	12393
211.4211	12474
211.44257	12463
211.46402	12390
211.48547	12402
211.50694	12341
211.5284	12401
211.54987	12331
211.57132	12311
211.59277	12372
211.61424	12403
211.6357	12405
211.65715	12419
211.67862	12442
211.70007	12390
211.72153	12403
211.743	12318
211.76445	12430
211.7859	12513
211.80736	12545
211.82883	12526
211.85028	12443
211.87173	12556
211.89319	12576
211.91466	12438
211.93611	12455
211.95757	12509
211.97902	12507
212.00047	12534
212.02193	12468
212.0434	12466
212.06485	12452
212.0863	12388
212.10776	12501
212.12921	12610
212.15067	12654
212.17212	12638
212.19357	12635
212.21503	12634
212.23648	12642
212.25793	12662
212.27939	12741
212.30084	12821
212.3223	12902
212.34375	12786
212.3652	12756
212.38666	12782
212.40811	12789
212.42957	12832
212.45102	12763
212.47247	12798
212.49393	12735
212.51538	12696
212.53683	12661
212.55827	12685
212.57973	12701
212.60118	12709
212.62263	12620
212.64409	12515
212.66554	12548
212.68698	12558
212.70844	12610
212.72989	12606
212.75134	12656
212.77278	12641
212.79424	12771
212.81569	12820
212.83714	12720
212.85858	12700
212.88004	12650
212.90149	12679
212.92293	12635
212.94438	12614
212.96584	12566
212.98727	12626
213.00873	12589
213.03017	12442
213.05162	12472
213.07307	12583
213.09451	12479
213.11597	12425
213.13741	12375
213.15886	12370
213.1803	12419
213.20175	12387
213.22319	12390
213.24464	12477
213.26608	12479
213.28754	12511
213.30898	12414
213.33043	12502
213.35187	12474
213.37332	12488
213.39476	12440
213.41621	12481
213.43765	12463
213.45909	12436
213.48055	12494
213.50198	12474
213.52342	12432
213.54488	12434
213.56631	12446
213.58775	12568
213.60921	12618
213.63065	12578
213.65208	12488
213.67354	12479
213.69498	12552
213.71642	12502
213.73785	12500
213.75931	12553
213.78075	12604
213.80219	12520
213.82362	12537
213.84506	12512
213.8665	12511
213.88795	12509
213.90939	12492
213.93083	12527
213.95227	12520
213.97371	12460
213.99515	12463
214.01659	12467
214.03802	12524
214.05946	12578
214.08092	12603
214.10236	12553
214.12379	12598
214.14523	12464
214.16667	12481
214.18811	12526
214.20955	12540
214.23099	12578
214.25243	12627
214.27385	12680
214.29529	12628
214.31673	12653
214.33817	12699
214.3596	12754
214.38104	12722
214.40248	12707
214.42392	12588
214.44536	12628
214.46678	12664
214.48822	12678
214.50966	12769
214.5311	12747
214.55254	12732
214.57397	12703
214.5954	12735
214.61684	12628
214.63828	12670
214.65971	12686
214.68114	12729
214.70258	12799
214.72401	12824
214.74544	12826
214.76688	12829
214.78831	12852
214.80974	12866
214.83118	12884
214.85262	12951
214.87404	12947
214.89548	12878
214.9169	12907
214.93834	12842
214.95978	12855
214.9812	12915
215.00264	12868
215.02406	12932
215.0455	13063
215.06693	13142
215.08836	13010
215.10979	12998
215.13123	12896
215.15265	12906
215.17409	12902
215.19551	12944
215.21695	13024
215.23837	13015
215.25981	12980
215.28123	12826
215.30266	12816
215.3241	12843
215.34552	12897
215.36694	12970
215.38838	13009
215.40981	12928
215.43123	12861
215.45267	12869
215.47409	12872
215.49551	12843
215.51695	12862
215.53838	12891
215.5598	12900
215.58122	12877
215.60266	12860
215.62408	12874
215.64551	12888
215.66693	12900
215.68835	12911
215.70978	12931
215.73122	12998
215.75264	12987
215.77406	12919
215.79549	12979
215.81691	12892
215.83833	12900
215.85976	12831
215.88118	12800
215.9026	12770
215.92403	12712
215.94547	12705
215.96689	12709
215.98831	12849
216.00974	12753
216.03116	12796
216.05258	12739
216.07399	12787
216.09541	12698
216.11684	12768
216.13826	12865
216.15968	12904
216.18111	12966
216.20253	12883
216.22395	12892
216.24538	12934
216.2668	12834
216.28821	12828
216.30963	12784
216.33105	12817
216.35248	12847
216.3739	12871
216.39532	12897
216.41673	12848
216.43816	12881
216.45958	12843
216.481	12954
216.50241	12931
216.52383	13042
216.54526	13039
216.56667	12926
216.58809	12982
216.60951	12911
216.63092	12977
216.65234	13052
216.67377	13119
216.69518	13197
216.7166	13185
216.73802	13206
216.75943	13163
216.78085	13171
216.80226	13136
216.82368	13122
216.84509	13179
216.86652	13150
216.88792	13030
216.90935	13035
216.93076	13009
216.95218	13046
216.97359	13059
216.99501	12965
217.01642	12969
217.03784	12951
217.05925	12980
217.08066	13022
217.10208	12951
217.12349	12933
217.14491	12933
217.16632	13080
217.18773	13118
217.20915	13133
217.23056	13056
217.25197	13093
217.27339	13070
217.2948	13037
217.31621	12926
217.33762	12928
217.35904	12935
217.38045	12916
217.40186	12883
217.42326	12928
217.44469	12940
217.46609	12950
217.4875	12907
217.50891	12898
217.53032	12866
217.55173	12854
217.57315	12848
217.59456	12784
217.61597	12905
217.63737	12891
217.65878	12944
217.68019	12957
217.7016	12989
217.72301	12934
217.74442	12882
217.76582	12924
217.78723	12994
217.80864	12984
217.83005	12942
217.85146	12938
217.87286	12914
217.89427	12872
217.91568	12848
217.93709	12976
217.9585	12982
217.9799	13113
218.00131	13070
218.02271	13154
218.04411	13093
218.06552	13041
218.08693	13119
218.10834	13166
218.12975	13236
218.15115	13299
218.17255	13262
218.19395	13326
218.21536	13308
218.23677	13285
218.25816	13282
218.27957	13235
218.30098	13303
218.32239	13288
218.34378	13215
218.36519	13192
218.3866	13287
218.40799	13289
218.4294	13298
218.45079	13161
218.4722	13182
218.49361	13111
218.515	13078
218.53641	13160
218.5578	13170
218.57921	13117
218.60062	13069
218.62201	13094
218.64342	13157
218.66481	13123
218.68622	13084
218.70761	13202
218.72902	13155
218.75041	13013
218.77182	13020
218.79321	13092
218.81461	13240
218.83601	13121
218.85741	12943
218.87881	12798
218.90021	12895
218.9216	12909
218.94301	12925
218.9644	12877
218.98579	12874
219.0072	12793
219.02859	12754
219.04999	12770
219.0714	12829
219.09279	12743
219.11418	12744
219.13557	12825
219.15698	12826
219.17838	12751
219.19977	12611
219.22116	12639
219.24255	12637
219.26396	12664
219.28535	12761
219.30675	12739
219.32814	12764
219.34953	12721
219.37093	12683
219.39232	12768
219.41371	12788
219.4351	12784
219.45651	12782
219.47791	12807
219.4993	12787
219.52069	12744
219.54208	12754
219.56348	12758
219.58487	12801
219.60626	12804
219.62766	12823
219.64905	12878
219.67043	12902
219.69182	12918
219.71321	12881
219.7346	12935
219.756	12940
219.77739	12883
219.79878	12928
219.82018	12981
219.84157	13000
219.86295	13019
219.88434	12921
219.90573	12882
219.92712	12864
219.94852	12880
219.96989	12883
219.99129	12941
220.01268	12897
220.03406	12943
220.05545	12955
220.07684	12872
220.09824	12999
220.11961	12882
220.14101	12956
220.1624	13013
220.18378	13020
220.20517	12980
220.22655	12941
220.24794	13020
220.26933	13016
220.29071	13069
220.3121	13053
220.33348	13080
220.35487	13134
220.37625	13066
220.39764	13010
220.41902	12924
220.44041	12833
220.46179	12836
220.48318	12858
220.50456	12944
220.52596	12943
220.54733	12896
220.56873	12928
220.5901	12967
220.61148	12965
220.63287	12998
220.65425	12999
220.67564	13058
220.69702	13052
220.7184	12979
220.73978	13013
220.76117	13004
220.78255	12968
220.80392	13109
220.82532	13019
220.84669	13057
220.86807	13180
220.88945	13221
220.91084	13127
220.93222	13092
220.9536	13068
220.97498	13131
220.99635	13209
221.01773	13188
221.03912	13283
221.0605	13259
221.08188	13319
221.10326	13276
221.12463	13197
221.14601	13189
221.16739	13205
221.18877	13236
221.21014	13256
221.23152	13220
221.2529	13159
221.27428	13169
221.29565	13124
221.31703	13146
221.33841	12991
221.35979	13046
221.38116	13023
221.40254	12975
221.42392	12953
221.4453	12994
221.46667	12970
221.48805	13044
221.50943	13075
221.53079	13143
221.55217	13209
221.57355	13206
221.59492	13287
221.6163	13310
221.63766	13313
221.65904	13220
221.68042	13263
221.7018	13240
221.72316	13239
221.74454	13173
221.76591	13116
221.78729	13156
221.80865	13157
221.83003	13130
221.85141	13152
221.87277	13070
221.89415	13052
221.91553	13037
221.93689	13077
221.95827	13115
221.97963	13254
222.00101	13188
222.02237	13208
222.04375	13195
222.06512	13219
222.08649	13211
222.10786	13141
222.12923	13119
222.1506	13080
222.17197	13165
222.19333	13083
222.21471	13058
222.23607	13103
222.25745	13100
222.27881	13136
222.30019	13191
222.32155	13328
222.34291	13345
222.36429	13284
222.38565	13252
222.40701	13211
222.42839	13257
222.44975	13271
222.47112	13385
222.49249	13457
222.51385	13515
222.53522	13446
222.55658	13426
222.57796	13421
222.59932	13390
222.62068	13395
222.64204	13491
222.66341	13463
222.68478	13350
222.70615	13367
222.72751	13303
222.74887	13276
222.77023	13343
222.7916	13225
222.81296	13142
222.83432	13224
222.85568	13259
222.87704	13287
222.89841	13290
222.91977	13288
222.94115	13284
222.96251	13327
222.98386	13464
223.00522	13455
223.02658	13394
223.04794	13431
223.06931	13370
223.09067	13350
223.11203	13312
223.13339	13323
223.15475	13293
223.17612	13306
223.19748	13204
223.21884	13218
223.24019	13270
223.26155	13248
223.28291	13273
223.30428	13217
223.32564	13243
223.34698	13217
223.36835	13140
223.38971	13131
223.41107	13199
223.43242	13287
223.45378	13226
223.47514	13288
223.49649	13263
223.51785	13215
223.53922	13186
223.56056	13103
223.58192	13133
223.60329	13190
223.62463	13147
223.646	13183
223.66734	13220
223.68871	13138
223.71005	13090
223.73141	13119
223.75276	13251
223.77412	13263
223.79547	13267
223.81683	13252
223.83818	13217
223.85954	13149
223.88089	13142
223.90225	13186
223.9236	13274
223.94496	13384
223.96631	13369
223.98766	13275
224.00902	13392
224.03036	13394
224.05171	13385
224.07307	13329
224.09442	13393
224.11577	13328
224.13713	13325
224.15848	13287
224.17982	13319
224.20117	13348
224.22253	13331
224.24388	13336
224.26523	13236
224.28658	13254
224.30794	13191
224.32928	13237
224.35063	13274
224.37198	13280
224.39333	13265
224.41467	13294
224.43602	13377
224.45737	13430
224.47873	13382
224.50008	13338
224.52142	13336
224.54277	13252
224.56412	13213
224.58546	13231
224.60681	13307
224.62816	13295
224.64951	13204
224.67085	13192
224.6922	13364
224.71355	13339
224.73488	13400
224.75623	13420
224.77757	13388
224.79892	13314
224.82027	13270
224.84161	13201
224.86296	13218
224.88431	13180
224.90564	13173
224.92699	13195
224.94833	13216
224.96968	13261
224.99103	13162
225.01236	13099
225.03371	13073
225.05505	13068
225.0764	13092
225.09773	13145
225.11908	13193
225.14043	13230
225.16176	13116
225.18311	13128
225.20445	13245
225.22578	13286
225.24713	13246
225.26846	13221
225.28981	13316
225.31116	13237
225.33249	13142
225.35384	13147
225.37517	13134
225.39651	13136
225.41785	13141
225.43919	13233
225.46053	13334
225.48187	13384
225.5032	13439
225.52455	13371
225.54588	13385
225.56721	13465
225.58856	13497
225.60989	13517
225.63124	13590
225.65257	13621
225.6739	13530
225.69525	13481
225.71658	13470
225.73792	13503
225.75925	13415
225.78059	13538
225.80193	13658
225.82326	13485
225.8446	13554
225.86594	13468
225.88727	13554
225.9086	13525
225.92993	13527
225.95128	13596
225.97261	13675
225.99394	13599
226.01527	13483
226.03661	13509
226.05794	13546
226.07927	13571
226.1006	13556
226.12193	13616
226.14328	13685
226.16461	13697
226.18594	13665
226.20728	13497
226.22861	13425
226.24994	13449
226.27127	13386
226.2926	13450
226.31392	13432
226.33525	13508
226.35658	13419
226.37791	13429
226.39925	13424
226.42058	13471
226.44191	13397
226.46324	13538
226.48457	13486
226.50589	13511
226.52722	13584
226.54855	13472
226.56989	13509
226.59122	13494
226.61253	13399
226.63387	13416
226.6552	13602
226.67653	13698
226.69785	13593
226.71918	13567
226.74051	13541
226.76183	13569
226.78316	13623
226.80449	13658
226.82581	13719
226.84714	13822
226.86845	13767
226.88979	13750
226.91112	13819
226.93243	13806
226.95377	13833
226.97508	13871
226.99641	13892
227.01773	13806
227.03906	13836
227.06038	13791
227.08171	13878
227.10303	13840
227.12436	13830
227.14568	13773
227.16701	13741
227.18832	13763
227.20964	13689
227.23097	13760
227.25229	13773
227.27361	13803
227.29494	13797
227.31625	13939
227.33757	13866
227.3589	13986
227.38022	13950
227.40154	14024
227.42285	14037
227.44418	14007
227.4655	13882
227.48682	13872
227.50813	13927
227.52946	13902
227.55078	13835
227.5721	13804
227.59341	13840
227.61473	13858
227.63605	13836
227.65736	13801
227.67868	13800
227.70001	13753
227.72133	13776
227.74265	13826
227.76396	13950
227.78528	14025
227.80659	14029
227.82791	14016
227.84923	14005
227.87054	14072
227.89186	14074
227.91318	14092
227.93448	14114
227.9558	14203
227.97711	14224
227.99843	14292
228.01974	14261
228.04106	14259
228.06238	14239
228.08369	14377
228.105	14554
228.12631	14692
228.14763	14782
228.16895	14757
228.19026	14652
228.21156	14607
228.23288	14613
228.2542	14713
228.27551	14864
228.29681	15015
228.31813	15013
228.33945	15036
228.36075	15031
228.38206	15091
228.40338	15096
228.42468	15069
228.446	15146
228.4673	15109
228.48862	15060
228.50992	15005
228.53123	15002
228.55255	14999
228.57385	15042
228.59517	15050
228.61647	15125
228.63779	15198
228.65909	15237
228.68039	15270
228.70171	15296
228.72301	15350
228.74432	15481
228.76563	15632
228.78694	15749
228.80824	15795
228.82954	15799
228.85086	15885
228.87216	16001
228.89346	15947
228.91478	15882
228.93608	15974
228.95738	15906
228.97868	15920
229	15967
229.0213	16137
229.0426	16227
229.0639	16324
229.08522	16439
229.10652	16583
229.12782	16634
229.14912	16661
229.17043	16594
229.19173	16663
229.21303	16693
229.23433	16681
229.25565	16915
229.27695	16925
229.29825	16928
229.31955	16961
229.34085	16839
229.36215	16824
229.38345	16823
229.40475	16879
229.42606	16998
229.44736	17026
229.46866	17032
229.48996	16967
229.51126	16947
229.53255	16983
229.55385	17053
229.57515	17021
229.59645	16964
229.61775	16939
229.63905	16830
229.66035	16841
229.68164	16752
229.70294	16732
229.72424	16754
229.74554	16756
229.76683	16647
229.78813	16585
229.80943	16621
229.83073	16544
229.85202	16580
229.87332	16551
229.89462	16497
229.91591	16401
229.93721	16414
229.95851	16363
229.9798	16342
230.0011	16279
230.02238	16134
230.04369	16022
230.06499	16046
230.08627	16049
230.10757	15992
230.12886	16017
230.15016	15876
230.17145	15929
230.19275	15913
230.21404	15849
230.23534	15784
230.25662	15781
230.27791	15821
230.29921	15751
230.3205	15697
230.3418	15609
230.36308	15631
230.38437	15599
230.40567	15593
230.42696	15550
230.44824	15554
230.46954	15517
230.49083	15521
230.51212	15461
230.5334	15383
230.5547	15300
230.57599	15257
230.59727	15201
230.61856	15069
230.63985	14908
230.66115	14911
230.68243	14843
230.70372	14776
230.72501	14850
230.74629	14960
230.76758	14929
230.78886	14776
230.81015	14819
230.83145	14785
230.85274	14754
230.87402	14844
