Date and Time:                Sat Jan 28 16:40:10.000 2023
Software Version:             4.31.30023.0
Temperature (C):              -40
Model:                        DU940P_BU2
Data Type:                    Counts
Acquisition Mode:             Single Scan
Trigger Mode:                 Internal
Exposure Time (secs):         3.5
Readout Mode:                 Full Vertical Binning
Horizontal binning:           1
Extended Dynamic Range:       off
Horizontally flipped:         false
Vertical Shift Speed (usecs): 14.51
Pixel Readout Rate (MHz):     3
Baseline Clamp:               ON
Clock Amplitude:              Normal
Output Amplifier:             High Capacity
Serial Number:                23634
Pre-Amplifier Gain:           1.000000
Spurious Noise Filter Mode:   No Filter
Photon counted:               false
Data Averaging Filter Mode:   No Filter
SR500i:
Serial Number:                
Wavelength (nm):              229
Grating Groove Density (l/mm):1199.47
Grating Blaze:                500
Output Flipper Port:          Direct
Accessory Output Port 1:      Off
Accessory Output Port 2:      Off
Accessory Output Port 3:      Off
Accessory Input Port:         On



207.10411	11688
207.12561	11104
207.14709	11087
207.16859	11094
207.19009	11130
207.21158	11248
207.23308	11297
207.25456	11292
207.27606	11163
207.29755	11198
207.31905	11123
207.34053	11078
207.36203	11017
207.38351	11115
207.40501	11164
207.4265	11160
207.448	11153
207.46948	11143
207.49098	11226
207.51247	11213
207.53397	11190
207.55545	11216
207.57695	11278
207.59843	11244
207.61992	11229
207.64142	11225
207.6629	11351
207.68439	11306
207.70589	11356
207.72737	11340
207.74886	11383
207.77036	11376
207.79184	11351
207.81332	11342
207.83482	11368
207.85631	11395
207.87779	11425
207.89928	11467
207.92078	11485
207.94226	11495
207.96375	11535
207.98523	11482
208.00671	11397
208.02821	11374
208.0497	11410
208.07118	11468
208.09267	11518
208.11415	11404
208.13564	11472
208.15712	11510
208.17862	11514
208.2001	11469
208.22159	11552
208.24307	11558
208.26456	11554
208.28604	11593
208.30753	11579
208.32901	11579
208.35049	11618
208.37198	11665
208.39346	11678
208.41495	11640
208.43643	11664
208.45792	11637
208.4794	11607
208.50089	11603
208.52237	11614
208.54385	11578
208.56534	11472
208.58681	11421
208.60829	11516
208.62978	11561
208.65126	11457
208.67274	11485
208.69423	11523
208.71571	11545
208.7372	11529
208.75867	11484
208.78015	11469
208.80164	11519
208.82312	11536
208.84459	11491
208.86607	11516
208.88756	11533
208.90904	11564
208.93051	11644
208.952	11724
208.97348	11629
208.99496	11638
209.01643	11575
209.03792	11643
209.0594	11618
209.08087	11562
209.10236	11572
209.12384	11601
209.14531	11682
209.16679	11633
209.18826	11622
209.20975	11691
209.23123	11736
209.2527	11705
209.27419	11629
209.29565	11704
209.31714	11678
209.33861	11744
209.36009	11762
209.38156	11869
209.40305	11835
209.42451	11826
209.446	11748
209.46747	11674
209.48895	11687
209.51042	11696
209.53191	11747
209.55338	11838
209.57484	11805
209.59633	11740
209.6178	11746
209.63927	11773
209.66075	11810
209.68222	11821
209.7037	11804
209.72517	11828
209.74664	11782
209.76813	11737
209.7896	11692
209.81107	11680
209.83253	11711
209.85402	11690
209.87549	11684
209.89696	11705
209.91843	11744
209.93991	11665
209.96138	11764
209.98285	11615
210.00432	11636
210.02579	11621
210.04726	11653
210.06874	11665
210.09021	11634
210.11168	11623
210.13315	11634
210.15462	11667
210.17609	11641
210.19756	11638
210.21902	11631
210.24049	11652
210.26198	11653
210.28345	11675
210.30492	11682
210.32639	11817
210.34785	11815
210.36932	11828
210.39079	11804
210.41226	11937
210.43373	11968
210.4552	11925
210.47665	11900
210.49812	11895
210.51959	11877
210.54106	11886
210.56253	11789
210.584	11863
210.60547	11959
210.62694	11978
210.64841	12034
210.66988	12103
210.69133	12110
210.7128	12132
210.73427	12141
210.75574	12092
210.77721	12100
210.79866	12063
210.82013	12160
210.8416	12179
210.86307	12294
210.88452	12296
210.90599	12255
210.92746	12316
210.94893	12286
210.97038	12255
210.99185	12285
211.01332	12349
211.03477	12309
211.05624	12269
211.0777	12290
211.09917	12333
211.12064	12321
211.14209	12291
211.16356	12219
211.18501	12237
211.20648	12244
211.22795	12256
211.2494	12251
211.27087	12189
211.29233	12232
211.3138	12318
211.33525	12403
211.35672	12324
211.37817	12355
211.39964	12436
211.4211	12488
211.44257	12556
211.46402	12420
211.48547	12419
211.50694	12346
211.5284	12385
211.54987	12326
211.57132	12289
211.59277	12358
211.61424	12385
211.6357	12445
211.65715	12414
211.67862	12467
211.70007	12429
211.72153	12391
211.743	12377
211.76445	12397
211.7859	12558
211.80736	12524
211.82883	12560
211.85028	12578
211.87173	12632
211.89319	12535
211.91466	12505
211.93611	12458
211.95757	12512
211.97902	12518
212.00047	12510
212.02193	12492
212.0434	12506
212.06485	12473
212.0863	12467
212.10776	12585
212.12921	12647
212.15067	12697
212.17212	12677
212.19357	12665
212.21503	12634
212.23648	12676
212.25793	12617
212.27939	12736
212.30084	12823
212.3223	12864
212.34375	12792
212.3652	12803
212.38666	12762
212.40811	12776
212.42957	12819
212.45102	12791
212.47247	12782
212.49393	12770
212.51538	12734
212.53683	12703
212.55827	12695
212.57973	12750
212.60118	12754
212.62263	12618
212.64409	12567
212.66554	12552
212.68698	12546
212.70844	12669
212.72989	12691
212.75134	12690
212.77278	12687
212.79424	12786
212.81569	12797
212.83714	12852
212.85858	12743
212.88004	12744
212.90149	12658
212.92293	12727
212.94438	12655
212.96584	12631
212.98727	12622
213.00873	12553
213.03017	12486
213.05162	12542
213.07307	12568
213.09451	12500
213.11597	12479
213.13741	12416
213.15886	12411
213.1803	12399
213.20175	12397
213.22319	12420
213.24464	12493
213.26608	12543
213.28754	12558
213.30898	12551
213.33043	12524
213.35187	12546
213.37332	12460
213.39476	12571
213.41621	12492
213.43765	12521
213.45909	12524
213.48055	12506
213.50198	12478
213.52342	12445
213.54488	12408
213.56631	12440
213.58775	12558
213.60921	12591
213.63065	12598
213.65208	12513
213.67354	12490
213.69498	12524
213.71642	12482
213.73785	12480
213.75931	12584
213.78075	12619
213.80219	12564
213.82362	12537
213.84506	12523
213.8665	12566
213.88795	12587
213.90939	12565
213.93083	12546
213.95227	12542
213.97371	12527
213.99515	12525
214.01659	12508
214.03802	12583
214.05946	12553
214.08092	12569
214.10236	12620
214.12379	12616
214.14523	12549
214.16667	12538
214.18811	12537
214.20955	12523
214.23099	12606
214.25243	12664
214.27385	12702
214.29529	12651
214.31673	12722
214.33817	12768
214.3596	12773
214.38104	12737
214.40248	12716
214.42392	12648
214.44536	12650
214.46678	12705
214.48822	12694
214.50966	12775
214.5311	12818
214.55254	12763
214.57397	12759
214.5954	12670
214.61684	12713
214.63828	12755
214.65971	12723
214.68114	12817
214.70258	12849
214.72401	12830
214.74544	12912
214.76688	12887
214.78831	12944
214.80974	12877
214.83118	12923
214.85262	12968
214.87404	12996
214.89548	12941
214.9169	12924
214.93834	12924
214.95978	12909
214.9812	12939
215.00264	12926
215.02406	12983
215.0455	13074
215.06693	13107
215.08836	13076
215.10979	13011
215.13123	12874
215.15265	12956
215.17409	12902
215.19551	12966
215.21695	13061
215.23837	13071
215.25981	12931
215.28123	12894
215.30266	12892
215.3241	12884
215.34552	12903
215.36694	13000
215.38838	13004
215.40981	12929
215.43123	12939
215.45267	12937
215.47409	12957
215.49551	12864
215.51695	12850
215.53838	12889
215.5598	12945
215.58122	12917
215.60266	12944
215.62408	12916
215.64551	12901
215.66693	12889
215.68835	12902
215.70978	12920
215.73122	12991
215.75264	12968
215.77406	12984
215.79549	13046
215.81691	12956
215.83833	12940
215.85976	12878
215.88118	12814
215.9026	12809
215.92403	12788
215.94547	12828
215.96689	12883
215.98831	12821
216.00974	12789
216.03116	12809
216.05258	12764
216.07399	12773
216.09541	12812
216.11684	12737
216.13826	12890
216.15968	12988
216.18111	13030
216.20253	12902
216.22395	12952
216.24538	12959
216.2668	12909
216.28821	12882
216.30963	12819
216.33105	12837
216.35248	12904
216.3739	12887
216.39532	12870
216.41673	12878
216.43816	12888
216.45958	12862
216.481	12923
216.50241	13002
216.52383	12999
216.54526	13033
216.56667	12981
216.58809	13001
216.60951	12952
216.63092	13034
216.65234	13096
216.67377	13179
216.69518	13243
216.7166	13270
216.73802	13221
216.75943	13220
216.78085	13136
216.80226	13220
216.82368	13163
216.84509	13285
216.86652	13126
216.88792	13081
216.90935	13023
216.93076	13055
216.95218	13079
216.97359	13096
216.99501	12996
217.01642	12990
217.03784	12983
217.05925	13019
217.08066	13028
217.10208	12977
217.12349	12968
217.14491	12985
217.16632	13038
217.18773	13114
217.20915	13114
217.23056	13156
217.25197	13131
217.27339	13071
217.2948	13070
217.31621	13011
217.33762	12976
217.35904	12929
217.38045	12948
217.40186	12906
217.42326	12963
217.44469	12995
217.46609	13012
217.4875	12946
217.50891	12921
217.53032	12902
217.55173	12921
217.57315	12835
217.59456	12836
217.61597	12999
217.63737	12926
217.65878	13000
217.68019	12980
217.7016	13015
217.72301	12937
217.74442	12895
217.76582	12920
217.78723	12991
217.80864	12955
217.83005	12937
217.85146	12933
217.87286	12975
217.89427	12903
217.91568	12881
217.93709	13062
217.9585	13081
217.9799	13143
218.00131	13105
218.02271	13141
218.04411	13087
218.06552	13070
218.08693	13216
218.10834	13203
218.12975	13255
218.15115	13282
218.17255	13337
218.19395	13345
218.21536	13356
218.23677	13348
218.25816	13298
218.27957	13245
218.30098	13345
218.32239	13245
218.34378	13219
218.36519	13220
218.3866	13258
218.40799	13331
218.4294	13282
218.45079	13205
218.4722	13202
218.49361	13199
218.515	13177
218.53641	13265
218.5578	13335
218.57921	13241
218.60062	13147
218.62201	13140
218.64342	13167
218.66481	13120
218.68622	13169
218.70761	13241
218.72902	13136
218.75041	13022
218.77182	13014
218.79321	13029
218.81461	13281
218.83601	13061
218.85741	12926
218.87881	12896
218.90021	12934
218.9216	12933
218.94301	12975
218.9644	12906
218.98579	12944
219.0072	12816
219.02859	12801
219.04999	12758
219.0714	12811
219.09279	12750
219.11418	12780
219.13557	12778
219.15698	12803
219.17838	12839
219.19977	12757
219.22116	12699
219.24255	12640
219.26396	12687
219.28535	12774
219.30675	12755
219.32814	12761
219.34953	12738
219.37093	12716
219.39232	12715
219.41371	12825
219.4351	12837
219.45651	12790
219.47791	12818
219.4993	12833
219.52069	12813
219.54208	12728
219.56348	12795
219.58487	12786
219.60626	12866
219.62766	12819
219.64905	12897
219.67043	12941
219.69182	12954
219.71321	12986
219.7346	12974
219.756	12926
219.77739	12978
219.79878	12922
219.82018	12994
219.84157	13029
219.86295	12967
219.88434	12944
219.90573	12898
219.92712	12832
219.94852	12919
219.96989	12898
219.99129	12961
220.01268	12993
220.03406	12976
220.05545	12917
220.07684	12968
220.09824	12965
220.11961	12884
220.14101	12959
220.1624	13045
220.18378	13006
220.20517	13053
220.22655	13016
220.24794	12978
220.26933	13062
220.29071	13076
220.3121	13060
220.33348	13165
220.35487	13112
220.37625	13077
220.39764	13002
220.41902	12930
220.44041	12882
220.46179	12890
220.48318	12922
220.50456	12929
220.52596	12994
220.54733	13042
220.56873	12988
220.5901	13014
220.61148	13027
220.63287	13035
220.65425	13030
220.67564	13068
220.69702	13019
220.7184	13032
220.73978	12993
220.76117	13031
220.78255	13058
220.80392	13021
220.82532	13094
220.84669	13112
220.86807	13200
220.88945	13247
220.91084	13181
220.93222	13137
220.9536	13118
220.97498	13145
220.99635	13244
221.01773	13275
221.03912	13250
221.0605	13296
221.08188	13272
221.10326	13276
221.12463	13247
221.14601	13227
221.16739	13147
221.18877	13222
221.21014	13246
221.23152	13243
221.2529	13137
221.27428	13220
221.29565	13176
221.31703	13145
221.33841	13102
221.35979	13065
221.38116	13021
221.40254	13015
221.42392	13054
221.4453	13010
221.46667	12962
221.48805	13028
221.50943	13101
221.53079	13243
221.55217	13204
221.57355	13253
221.59492	13310
221.6163	13333
221.63766	13326
221.65904	13279
221.68042	13281
221.7018	13255
221.72316	13257
221.74454	13169
221.76591	13165
221.78729	13213
221.80865	13142
221.83003	13090
221.85141	13120
221.87277	13142
221.89415	13068
221.91553	13074
221.93689	13083
221.95827	13190
221.97963	13230
222.00101	13244
222.02237	13206
222.04375	13224
222.06512	13259
222.08649	13252
222.10786	13207
222.12923	13190
222.1506	13237
222.17197	13232
222.19333	13195
222.21471	13144
222.23607	13152
222.25745	13135
222.27881	13155
222.30019	13236
222.32155	13297
222.34291	13313
222.36429	13327
222.38565	13266
222.40701	13243
222.42839	13284
222.44975	13306
222.47112	13404
222.49249	13552
222.51385	13571
222.53522	13518
222.55658	13447
222.57796	13425
222.59932	13437
222.62068	13414
222.64204	13524
222.66341	13497
222.68478	13362
222.70615	13370
222.72751	13409
222.74887	13305
222.77023	13351
222.7916	13225
222.81296	13243
222.83432	13276
222.85568	13291
222.87704	13255
222.89841	13371
222.91977	13324
222.94115	13305
222.96251	13345
222.98386	13455
223.00522	13422
223.02658	13411
223.04794	13455
223.06931	13446
223.09067	13428
223.11203	13333
223.13339	13292
223.15475	13355
223.17612	13356
223.19748	13196
223.21884	13251
223.24019	13279
223.26155	13322
223.28291	13255
223.30428	13283
223.32564	13305
223.34698	13230
223.36835	13185
223.38971	13144
223.41107	13238
223.43242	13277
223.45378	13296
223.47514	13340
223.49649	13362
223.51785	13266
223.53922	13188
223.56056	13183
223.58192	13184
223.60329	13170
223.62463	13196
223.646	13210
223.66734	13186
223.68871	13157
223.71005	13148
223.73141	13196
223.75276	13264
223.77412	13332
223.79547	13262
223.81683	13268
223.83818	13170
223.85954	13182
223.88089	13204
223.90225	13228
223.9236	13376
223.94496	13462
223.96631	13337
223.98766	13326
224.00902	13361
224.03036	13422
224.05171	13441
224.07307	13419
224.09442	13417
224.11577	13380
224.13713	13312
224.15848	13299
224.17982	13396
224.20117	13336
224.22253	13346
224.24388	13248
224.26523	13215
224.28658	13308
224.30794	13182
224.32928	13314
224.35063	13351
224.37198	13331
224.39333	13247
224.41467	13435
224.43602	13395
224.45737	13417
224.47873	13380
224.50008	13323
224.52142	13413
224.54277	13282
224.56412	13190
224.58546	13253
224.60681	13349
224.62816	13378
224.64951	13309
224.67085	13254
224.6922	13412
224.71355	13357
224.73488	13405
224.75623	13429
224.77757	13390
224.79892	13364
224.82027	13328
224.84161	13174
224.86296	13268
224.88431	13166
224.90564	13205
224.92699	13290
224.94833	13237
224.96968	13325
224.99103	13231
225.01236	13134
225.03371	13110
225.05505	13056
225.0764	13075
225.09773	13160
225.11908	13253
225.14043	13247
225.16176	13171
225.18311	13182
225.20445	13254
225.22578	13237
225.24713	13300
225.26846	13249
225.28981	13317
225.31116	13218
225.33249	13249
225.35384	13131
225.37517	13144
225.39651	13161
225.41785	13165
225.43919	13277
225.46053	13321
225.48187	13364
225.5032	13410
225.52455	13393
225.54588	13405
225.56721	13505
225.58856	13525
225.60989	13587
225.63124	13639
225.65257	13654
225.6739	13578
225.69525	13513
225.71658	13488
225.73792	13540
225.75925	13495
225.78059	13576
225.80193	13634
225.82326	13609
225.8446	13597
225.86594	13537
225.88727	13586
225.9086	13597
225.92993	13633
225.95128	13615
225.97261	13658
225.99394	13668
226.01527	13561
226.03661	13513
226.05794	13532
226.07927	13583
226.1006	13579
226.12193	13680
226.14328	13732
226.16461	13707
226.18594	13650
226.20728	13543
226.22861	13507
226.24994	13426
226.27127	13426
226.2926	13427
226.31392	13514
226.33525	13570
226.35658	13483
226.37791	13468
226.39925	13411
226.42058	13489
226.44191	13492
226.46324	13537
226.48457	13587
226.50589	13506
226.52722	13511
226.54855	13480
226.56989	13569
226.59122	13516
226.61253	13465
226.63387	13491
226.6552	13607
226.67653	13723
226.69785	13663
226.71918	13590
226.74051	13637
226.76183	13587
226.78316	13647
226.80449	13658
226.82581	13800
226.84714	13808
226.86845	13870
226.88979	13836
226.91112	13803
226.93243	13835
226.95377	13832
226.97508	13888
226.99641	13932
227.01773	13924
227.03906	13853
227.06038	13864
227.08171	13893
227.10303	13826
227.12436	13915
227.14568	13817
227.16701	13786
227.18832	13745
227.20964	13787
227.23097	13802
227.25229	13878
227.27361	13841
227.29494	13790
227.31625	13939
227.33757	14005
227.3589	14068
227.38022	13927
227.40154	14071
227.42285	14068
227.44418	14002
227.4655	13900
227.48682	13927
227.50813	13971
227.52946	13889
227.55078	13827
227.5721	13884
227.59341	13896
227.61473	13917
227.63605	13848
227.65736	13777
227.67868	13819
227.70001	13816
227.72133	13795
227.74265	13854
227.76396	14029
227.78528	14035
227.80659	14045
227.82791	14056
227.84923	13994
227.87054	14011
227.89186	14075
227.91318	14158
227.93448	14138
227.9558	14221
227.97711	14275
227.99843	14263
228.01974	14339
228.04106	14303
228.06238	14355
228.08369	14449
228.105	14667
228.12631	14729
228.14763	14845
228.16895	14768
228.19026	14728
228.21156	14661
228.23288	14715
228.2542	14790
228.27551	14895
228.29681	15082
228.31813	15078
228.33945	15078
228.36075	15140
228.38206	15137
228.40338	15133
228.42468	15176
228.446	15191
228.4673	15185
228.48862	15127
228.50992	15089
228.53123	15038
228.55255	15087
228.57385	15108
228.59517	15083
228.61647	15144
228.63779	15225
228.65909	15223
228.68039	15283
228.70171	15370
228.72301	15388
228.74432	15451
228.76563	15631
228.78694	15778
228.80824	15816
228.82954	15810
228.85086	15920
228.87216	16031
228.89346	16052
228.91478	15927
228.93608	15991
228.95738	16088
228.97868	16020
229	16088
229.0213	16189
229.0426	16266
229.0639	16396
229.08522	16484
229.10652	16646
229.12782	16691
229.14912	16673
229.17043	16652
229.19173	16715
229.21303	16765
229.23433	16797
229.25565	16925
229.27695	16917
229.29825	17028
229.31955	16915
229.34085	16868
229.36215	16879
229.38345	16893
229.40475	16921
229.42606	17011
229.44736	17011
229.46866	17037
229.48996	17026
229.51126	17021
229.53255	17130
229.55385	17120
229.57515	17051
229.59645	17073
229.61775	17081
229.63905	16945
229.66035	16851
229.68164	16859
229.70294	16827
229.72424	16838
229.74554	16773
229.76683	16737
229.78813	16754
229.80943	16653
229.83073	16705
229.85202	16619
229.87332	16541
229.89462	16569
229.91591	16456
229.93721	16450
229.95851	16366
229.9798	16394
230.0011	16295
230.02238	16172
230.04369	16148
230.06499	16088
230.08627	16093
230.10757	16091
230.12886	15995
230.15016	15937
230.17145	15935
230.19275	15932
230.21404	15897
230.23534	15862
230.25662	15818
230.27791	15836
230.29921	15831
230.3205	15787
230.3418	15660
230.36308	15665
230.38437	15656
230.40567	15654
230.42696	15643
230.44824	15566
230.46954	15636
230.49083	15601
230.51212	15504
230.5334	15550
230.5547	15349
230.57599	15345
230.59727	15275
230.61856	15048
230.63985	15039
230.66115	14967
230.68243	14832
230.70372	14854
230.72501	14985
230.74629	15025
230.76758	14925
230.78886	14818
230.81015	14858
230.83145	14843
230.85274	14769
230.87402	14873
