Date and Time:                Mon Oct 17 12:30:34.000 2022
Software Version:             4.31.30023.0
Temperature (C):              -40
Model:                        DU940P_BU2
Data Type:                    Counts
Acquisition Mode:             Single Scan
Trigger Mode:                 Internal
Exposure Time (secs):         0.2
Readout Mode:                 Full Vertical Binning
Horizontal binning:           1
Extended Dynamic Range:       off
Horizontally flipped:         false
Vertical Shift Speed (usecs): 14.51
Pixel Readout Rate (MHz):     3
Baseline Clamp:               ON
Clock Amplitude:              Normal
Output Amplifier:             High Capacity
Serial Number:                23634
Pre-Amplifier Gain:           1.000000
Spurious Noise Filter Mode:   No Filter
Photon counted:               false
Data Averaging Filter Mode:   No Filter
SR500i:
Serial Number:                
Wavelength (nm):              279.6
Grating Groove Density (l/mm):1199.47
Grating Blaze:                500
Output Flipper Port:          Direct
Accessory Output Port 1:      Off
Accessory Output Port 2:      Off
Accessory Output Port 3:      Off
Accessory Input Port:         On



257.95227	4926
257.97354	4660
257.99478	4704
258.01605	4646
258.03732	4685
258.05856	4752
258.07983	4723
258.1011	4753
258.12234	4708
258.14362	4744
258.16489	4700
258.18613	4653
258.2074	4635
258.22864	4661
258.24991	4674
258.27118	4710
258.29242	4689
258.31369	4728
258.33493	4731
258.3562	4740
258.37744	4772
258.39871	4739
258.41998	4740
258.44122	4783
258.46249	4754
258.48373	4742
258.505	4794
258.52625	4800
258.54752	4804
258.56876	4819
258.59003	4798
258.61127	4838
258.63254	4851
258.65378	4879
258.67505	4878
258.69629	4849
258.71756	4860
258.7388	4887
258.76007	4915
258.78131	4908
258.80255	4904
258.82382	4864
258.84506	4849
258.86633	4884
258.88757	4885
258.90884	4920
258.93008	4912
258.95132	4939
258.9726	4949
258.99384	4966
259.01511	4985
259.03635	4952
259.05759	4975
259.07886	5012
259.1001	5010
259.12134	5020
259.14261	5063
259.16385	5014
259.18509	5062
259.20636	5108
259.2276	5051
259.24884	5060
259.27011	5064
259.29135	5097
259.31259	5095
259.33386	5106
259.3551	5089
259.37634	5086
259.39758	5040
259.41885	4995
259.44009	5025
259.46133	5031
259.48257	5049
259.50385	5052
259.52509	5065
259.54633	5062
259.56757	5038
259.58884	5064
259.61008	5058
259.63132	5100
259.65256	5095
259.6738	5111
259.69507	5173
259.71631	5165
259.73755	5172
259.75879	5199
259.78003	5228
259.80127	5240
259.82254	5171
259.84378	5230
259.86502	5224
259.88626	5198
259.9075	5201
259.92874	5209
259.94998	5248
259.97125	5246
259.99249	5229
260.01373	5237
260.03497	5333
260.05621	5333
260.07745	5314
260.09869	5322
260.11993	5319
260.14117	5308
260.16241	5368
260.18365	5374
260.2049	5434
260.22614	5458
260.24738	5422
260.26865	5432
260.28989	5409
260.31113	5421
260.33237	5415
260.35361	5447
260.37485	5478
260.39609	5504
260.41733	5448
260.43857	5447
260.45981	5456
260.48102	5499
260.50226	5502
260.5235	5484
260.54474	5550
260.56598	5498
260.58722	5476
260.60846	5440
260.6297	5418
260.65094	5452
260.67218	5504
260.69342	5495
260.71466	5521
260.7359	5530
260.75714	5549
260.77835	5503
260.79959	5485
260.82083	5512
260.84207	5448
260.86331	5526
260.88455	5533
260.90579	5471
260.927	5467
260.94824	5480
260.96948	5482
260.99072	5499
261.01196	5483
261.0332	5448
261.05441	5515
261.07565	5524
261.09689	5518
261.11813	5537
261.13937	5584
261.16058	5614
261.18182	5646
261.20306	5625
261.2243	5630
261.24551	5618
261.26675	5617
261.28799	5607
261.30923	5604
261.33044	5618
261.35168	5592
261.37292	5599
261.39413	5642
261.41537	5646
261.43661	5634
261.45782	5667
261.47906	5702
261.50031	5716
261.52155	5722
261.54276	5723
261.564	5706
261.58521	5746
261.60645	5785
261.62769	5782
261.6489	5849
261.67014	5838
261.69138	5855
261.71259	5914
261.73383	5886
261.75504	5853
261.77628	5830
261.79752	5866
261.81873	5862
261.83997	5901
261.86118	5855
261.88242	5881
261.90366	5859
261.92487	5868
261.94611	5823
261.96732	5791
261.98856	5835
262.00977	5814
262.03101	5823
262.05222	5826
262.07346	5833
262.09467	5865
262.11591	5934
262.13712	5937
262.15836	5981
262.17957	5927
262.20081	5973
262.22202	5973
262.24326	5977
262.26447	5960
262.28571	5941
262.30692	5951
262.32813	5986
262.34937	5955
262.37057	5916
262.39182	5953
262.41302	6010
262.43427	6000
262.45547	6013
262.47668	6056
262.49792	6043
262.51913	6005
262.54034	6012
262.56158	5984
262.58279	6091
262.60403	6075
262.62524	6104
262.64645	6116
262.66769	6126
262.6889	6111
262.71011	6089
262.73135	6103
262.75256	6071
262.77377	6100
262.79498	6132
262.81622	6130
262.83743	6087
262.85864	6100
262.87988	6061
262.90109	6100
262.9223	6204
262.94351	6193
262.96475	6250
262.98596	6222
263.00717	6244
263.02838	6207
263.04962	6208
263.07083	6291
263.09204	6316
263.11325	6368
263.13446	6347
263.1557	6324
263.17691	6370
263.19812	6404
263.21933	6415
263.24054	6401
263.26175	6401
263.28299	6414
263.3042	6340
263.32541	6391
263.34662	6419
263.36783	6429
263.38904	6394
263.41025	6373
263.43149	6326
263.4527	6388
263.47391	6359
263.49512	6410
263.51633	6402
263.53754	6377
263.55875	6444
263.57996	6454
263.60117	6540
263.62238	6518
263.64359	6514
263.66479	6505
263.686	6514
263.70721	6546
263.72842	6497
263.74963	6528
263.77084	6511
263.79205	6450
263.81326	6397
263.83447	6431
263.85568	6453
263.87689	6433
263.8981	6386
263.91931	6401
263.94052	6369
263.96173	6401
263.98294	6375
264.00415	6399
264.02536	6391
264.04657	6447
264.06778	6467
264.08899	6458
264.1102	6480
264.13141	6500
264.15262	6466
264.17383	6452
264.19501	6461
264.21622	6462
264.23743	6476
264.25864	6462
264.27985	6498
264.30106	6543
264.32227	6493
264.34344	6515
264.36465	6585
264.38586	6635
264.40707	6606
264.42828	6584
264.44949	6558
264.47067	6525
264.49188	6574
264.51309	6578
264.5343	6565
264.55548	6614
264.57669	6585
264.5979	6579
264.61911	6614
264.64032	6599
264.6615	6633
264.68271	6637
264.70392	6661
264.7251	6640
264.74631	6682
264.76752	6701
264.78873	6688
264.80991	6703
264.83112	6670
264.85233	6748
264.8735	6751
264.89471	6737
264.91592	6753
264.9371	6713
264.95831	6730
264.97952	6778
265.0007	6756
265.02191	6827
265.04312	6837
265.0643	6829
265.08551	6908
265.10669	6951
265.1279	6897
265.14911	6939
265.17029	6924
265.1915	6885
265.21268	6876
265.23389	6900
265.2551	6918
265.27628	6944
265.29749	6968
265.31866	6994
265.33987	6962
265.36105	6931
265.38226	6919
265.40344	6948
265.42465	6967
265.44583	7006
265.46704	7080
265.48822	7105
265.50943	7062
265.53061	7094
265.55182	7114
265.573	7103
265.59421	7205
265.61539	7146
265.6366	7275
265.65778	7256
265.67899	7213
265.70016	7097
265.72134	7100
265.74255	7167
265.76373	7176
265.78494	7240
265.80612	7298
265.8273	7331
265.84851	7285
265.86969	7225
265.8909	7256
265.91208	7266
265.93326	7318
265.95447	7327
265.97565	7373
265.99683	7395
266.01804	7367
266.03922	7345
266.06039	7368
266.0816	7340
266.10278	7389
266.12396	7401
266.14517	7408
266.16635	7436
266.18753	7414
266.20871	7386
266.22992	7378
266.2511	7394
266.27228	7405
266.29349	7369
266.31467	7424
266.33585	7408
266.35703	7373
266.3782	7328
266.39941	7442
266.42059	7398
266.44177	7431
266.46295	7459
266.48416	7549
266.50534	7506
266.52652	7513
266.5477	7477
266.56888	7496
266.59006	7466
266.61127	7448
266.63245	7492
266.65363	7487
266.6748	7492
266.69598	7439
266.71716	7509
266.73834	7551
266.75952	7550
266.78073	7516
266.80191	7489
266.82309	7547
266.84427	7527
266.86545	7582
266.88663	7642
266.90781	7714
266.92899	7789
266.95016	7741
266.97134	7735
266.99252	7775
267.0137	7763
267.03488	7680
267.05606	7691
267.07724	7691
267.09842	7746
267.1196	7745
267.14078	7739
267.16196	7683
267.18314	7748
267.20432	7760
267.22549	7850
267.24667	7853
267.26785	7861
267.28903	7900
267.31021	7874
267.33139	7832
267.35257	7846
267.37375	7905
267.39493	7972
267.41611	8048
267.43729	8098
267.45844	8129
267.47961	8076
267.50079	8081
267.52197	8094
267.54315	8094
267.56433	8133
267.58551	8143
267.60666	8128
267.62784	8057
267.64902	8068
267.6702	8052
267.69138	8047
267.71255	8065
267.7337	8026
267.75488	8073
267.77606	8044
267.79724	8096
267.81842	8123
267.83957	8081
267.86075	8101
267.88193	8117
267.90311	8221
267.92426	8264
267.94543	8255
267.96661	8296
267.98779	8307
268.00894	8235
268.03012	8259
268.0513	8249
268.07245	8246
268.09363	8253
268.11481	8241
268.13599	8237
268.15714	8280
268.17831	8292
268.19949	8329
268.22064	8301
268.24182	8304
268.26297	8302
268.28415	8317
268.30533	8314
268.32648	8246
268.34766	8315
268.36884	8347
268.38998	8398
268.41116	8407
268.43231	8416
268.45349	8393
268.47467	8338
268.49582	8353
268.517	8426
268.53815	8410
268.55933	8437
268.58047	8419
268.60165	8411
268.6228	8422
268.64398	8414
268.66513	8488
268.68631	8503
268.70746	8538
268.72864	8524
268.74979	8500
268.77097	8487
268.79211	8491
268.81329	8548
268.83444	8558
268.85562	8611
268.87677	8692
268.89795	8666
268.9191	8679
268.94028	8658
268.96143	8718
268.98257	8687
269.00375	8718
269.0249	8716
269.04608	8669
269.06723	8653
269.08838	8676
269.10956	8781
269.13071	8709
269.15189	8682
269.17303	8607
269.19418	8580
269.21536	8637
269.23651	8675
269.25766	8760
269.27884	8763
269.29999	8741
269.32114	8741
269.34232	8749
269.36346	8831
269.38461	8733
269.40576	8778
269.42694	8790
269.44809	8801
269.46924	8816
269.49039	8764
269.51157	8815
269.53271	8904
269.55386	8809
269.57501	8699
269.59619	8711
269.61734	8794
269.63849	8749
269.65964	8804
269.68079	8730
269.70197	8809
269.72311	8757
269.74426	8703
269.76541	8675
269.78656	8642
269.80771	8721
269.82889	8706
269.85004	8771
269.87119	8788
269.89233	8746
269.91348	8702
269.93463	8673
269.95578	8696
269.97696	8666
269.99811	8765
270.01926	8867
270.04041	8839
270.06155	8849
270.0827	8793
270.10385	8789
270.125	8857
270.14615	8939
270.1673	8956
270.18845	8974
270.20959	8957
270.23074	8959
270.25189	8896
270.27304	8863
270.29419	8855
270.31534	8892
270.33649	8902
270.35764	8960
270.37878	8970
270.39993	9014
270.42108	8965
270.44223	9033
270.46338	9069
270.48453	9055
270.50568	9074
270.52682	9074
270.54797	9147
270.56912	9122
270.59027	9018
270.61139	9050
270.63254	9009
270.65369	9030
270.67484	9034
270.69598	9120
270.71713	9112
270.73828	9115
270.75943	9070
270.78055	9062
270.8017	9085
270.82285	9087
270.84399	9093
270.86514	9124
270.88629	9181
270.90741	9104
270.92856	9096
270.94971	9093
270.97086	9145
270.99197	9223
271.01312	9195
271.03427	9209
271.05542	9256
271.07657	9241
271.09769	9208
271.11884	9154
271.13998	9044
271.1611	9034
271.18225	9115
271.2034	9098
271.22455	9141
271.24567	9143
271.26682	9176
271.28796	9183
271.30908	9250
271.33023	9252
271.35138	9262
271.3725	9281
271.39365	9358
271.41479	9357
271.43591	9297
271.45706	9285
271.47818	9308
271.49933	9280
271.52048	9246
271.5416	9323
271.56274	9458
271.58386	9529
271.60501	9429
271.62616	9419
271.64728	9446
271.66843	9500
271.68954	9565
271.71069	9600
271.73181	9647
271.75296	9674
271.77408	9702
271.79523	9696
271.81635	9662
271.83749	9660
271.85861	9616
271.87976	9686
271.90088	9700
271.92203	9692
271.94315	9654
271.96429	9639
271.98541	9680
272.00656	9680
272.02768	9643
272.04883	9595
272.06995	9589
272.09106	9547
272.11221	9543
272.13333	9535
272.15448	9518
272.1756	9583
272.19672	9631
272.21786	9734
272.23898	9757
272.26013	9768
272.28125	9751
272.30237	9724
272.32352	9708
272.34464	9718
272.36575	9721
272.3869	9724
272.40802	9748
272.42914	9706
272.45029	9666
272.47141	9669
272.49252	9657
272.51364	9690
272.53479	9691
272.55591	9675
272.57703	9683
272.59818	9640
272.61929	9715
272.64041	9811
272.66153	9879
272.68265	9939
272.7038	9949
272.72491	9891
272.74603	9949
272.76715	9904
272.78827	9839
272.80942	9844
272.83054	9878
272.85165	9851
272.87277	9904
272.89389	9885
272.91504	9846
272.93616	9926
272.95728	9888
272.97839	10041
272.99951	10079
273.02063	10055
273.04175	10003
273.06287	10040
273.08398	9969
273.10513	10028
273.12625	10128
273.14737	10184
273.16849	10315
273.18961	10361
273.21072	10278
273.23184	10341
273.25296	10328
273.27408	10305
273.2952	10342
273.31631	10321
273.33743	10305
273.35855	10257
273.37967	10272
273.40079	10303
273.42191	10298
273.44302	10179
273.46414	10156
273.48526	10145
273.50638	10219
273.5275	10226
273.54861	10311
273.56973	10328
273.59085	10289
273.61197	10293
273.63306	10427
273.65417	10479
273.67529	10445
273.69641	10471
273.71753	10491
273.73865	10545
273.75977	10564
273.78088	10512
273.802	10509
273.82309	10578
273.84421	10551
273.86533	10438
273.88644	10460
273.90756	10529
273.92868	10452
273.94977	10473
273.97089	10444
273.992	10587
274.01312	10551
274.03424	10463
274.05533	10448
274.07645	10447
274.09756	10533
274.11868	10574
274.13977	10606
274.16089	10603
274.18201	10584
274.20313	10475
274.22421	10504
274.24533	10548
274.26645	10536
274.28754	10555
274.30865	10689
274.32977	10706
274.35086	10689
274.37198	10628
274.3931	10633
274.41418	10748
274.4353	10761
274.45642	10772
274.47751	10762
274.49863	10791
274.51974	10755
274.54083	10691
274.56195	10767
274.58304	10881
274.60416	10974
274.62527	10996
274.64636	10953
274.66748	11043
274.68857	10995
274.70969	11085
274.73077	11013
274.75189	10990
274.77298	10958
274.7941	11009
274.81519	10989
274.8363	11039
274.85739	11061
274.87851	11072
274.8996	10996
274.92072	10937
274.9418	10881
274.96292	10957
274.98401	11018
275.00513	11174
275.02621	11115
275.04733	11038
275.06842	11084
275.08954	11221
275.11063	11194
275.13171	11153
275.15283	11156
275.17392	11126
275.19504	11191
275.21613	11129
275.23721	11132
275.25833	11192
275.27942	11236
275.30051	11191
275.32162	11176
275.34271	11260
275.3638	11319
275.38492	11346
275.40601	11366
275.42709	11327
275.44821	11369
275.4693	11271
275.49039	11136
275.51151	11129
275.53259	11043
275.55368	11085
275.57477	11221
275.59589	11270
275.61697	11238
275.63806	11262
275.65915	11189
275.68027	11160
275.70135	11166
275.72244	11271
275.74353	11261
275.76462	11425
275.78574	11430
275.80682	11373
275.82791	11287
275.849	11418
275.87009	11452
275.89117	11491
275.91229	11477
275.93338	11542
275.95447	11531
275.97556	11421
275.99664	11375
276.01773	11326
276.03882	11361
276.05991	11375
276.08102	11423
276.10211	11515
276.1232	11608
276.14429	11645
276.16537	11661
276.18646	11680
276.20755	11782
276.22864	11822
276.24973	11871
276.27081	11902
276.2919	11956
276.31299	11921
276.33408	11938
276.35516	11932
276.37625	11878
276.39734	11865
276.41843	11953
276.43951	11989
276.4606	11949
276.48169	11934
276.50278	11907
276.52386	11844
276.54495	11914
276.56604	11966
276.58713	11991
276.60818	12060
276.62927	11999
276.65036	11934
276.67145	11902
276.69254	11928
276.71362	11974
276.73471	12073
276.7558	12069
276.77689	12198
276.79794	12236
276.81903	12148
276.84012	12088
276.86121	11966
276.88229	11897
276.90335	11977
276.92444	11966
276.94553	12046
276.96661	12137
276.9877	12027
277.00876	12020
277.02985	12062
277.05093	12024
277.07202	12095
277.09308	12070
277.11417	12130
277.13525	12172
277.15634	12177
277.1774	12098
277.19849	12148
277.21957	12087
277.24063	11986
277.26172	12050
277.28281	12239
277.30386	12289
277.32495	12359
277.34604	12261
277.3671	12265
277.38818	12257
277.40927	12352
277.43033	12442
277.45142	12471
277.4725	12610
277.49356	12584
277.51465	12620
277.53571	12649
277.55679	12662
277.57788	12667
277.59894	12712
277.62003	12722
277.64108	12781
277.66217	12751
277.68323	12739
277.70432	12683
277.72537	12695
277.74646	12766
277.76752	12727
277.7886	12685
277.80966	12640
277.83075	12641
277.85181	12682
277.87289	12670
277.89395	12684
277.91504	12824
277.9361	12903
277.95718	12961
277.97824	12946
277.99933	12961
278.02039	13055
278.04144	12977
278.06253	12943
278.08359	12911
278.10468	12984
278.12573	13096
278.14679	12914
278.16788	12881
278.18893	12833
278.20999	12900
278.23108	12941
278.25214	12865
278.27322	12865
278.29428	12839
278.31534	12821
278.3364	12851
278.35748	12865
278.37854	12980
278.3996	13078
278.42068	13157
278.44174	13092
278.4628	13086
278.48386	13010
278.50494	12973
278.526	13013
278.54706	13039
278.56812	13077
278.5892	13208
278.61026	13288
278.63132	13219
278.65237	13253
278.67343	13221
278.69452	13292
278.71558	13475
278.73663	13615
278.75769	13634
278.77875	13549
278.79984	13489
278.82089	13465
278.84195	13442
278.86301	13514
278.88406	13608
278.90512	13815
278.92618	13886
278.94724	13852
278.96829	13840
278.98938	13812
279.01044	13845
279.03149	13872
279.05255	13799
279.07361	13825
279.09467	13778
279.11572	13704
279.13678	13664
279.15784	13699
279.17889	13616
279.19995	13650
279.22101	13767
279.24207	13878
279.26312	13923
279.28418	13890
279.30524	13829
279.32629	13822
279.34735	13883
279.36841	14120
279.38947	14185
279.41052	14184
279.43158	14164
279.45264	14199
279.47366	14330
279.49472	14296
279.51578	14128
279.53683	14173
279.55789	14132
279.57895	14179
279.60001	14092
279.62106	14259
279.64212	14302
279.66315	14396
279.6842	14487
279.70526	14588
279.72632	14638
279.74738	14590
279.76843	14466
279.78946	14386
279.81052	14434
279.83157	14480
279.85263	14617
279.87366	14682
279.89471	14615
279.91577	14559
279.93683	14526
279.95786	14526
279.97891	14541
279.99997	14609
280.02103	14727
280.04205	14868
280.06311	14853
280.08417	14833
280.10519	14853
280.12625	14886
280.14731	14907
280.16833	14966
280.18939	14981
280.21045	15037
280.23148	14983
280.25253	14972
280.27359	14906
280.29462	14912
280.31567	14996
280.33673	15047
280.35776	15092
280.37881	15130
280.39984	15206
280.4209	15255
280.44196	15207
280.46298	15260
280.48404	15350
280.50507	15405
280.52612	15395
280.54715	15383
280.56821	15486
280.58923	15468
280.61029	15266
280.63132	15293
280.65237	15347
280.6734	15406
280.69446	15502
280.71548	15611
280.73654	15625
280.75757	15614
280.77863	15577
280.79965	15535
280.82071	15599
280.84174	15646
280.86276	15661
280.88382	15677
280.90485	15631
280.9259	15640
280.94693	15599
280.96796	15668
280.98901	15727
281.01004	15723
281.03107	15697
281.05212	15798
281.07315	15867
281.09421	15813
281.11523	15832
281.13626	15748
281.15729	15615
281.17834	15569
281.19937	15442
281.2204	15288
281.24146	15195
281.26248	15165
281.28351	15203
281.30453	15261
281.32559	15391
281.34662	15322
281.36765	15267
281.38867	15352
281.40973	15342
281.43076	15306
281.45178	15346
281.47281	15489
281.49384	15719
281.51489	15687
281.53592	15632
281.55695	15691
281.57797	15804
281.599	15954
281.62006	15973
281.64108	16004
281.66211	16051
281.68314	15914
281.70416	15774
281.72519	15716
281.74622	15757
281.76724	15730
281.78827	15779
281.80933	15913
281.83035	16108
281.85138	16256
281.87241	16150
281.89343	16018
281.91446	16039
281.93549	16245
281.95651	16315
281.97754	16437
281.99857	16480
282.01959	16547
282.04062	16521
282.06165	16474
282.08267	16407
282.1037	16390
282.12473	16290
282.14575	16380
282.16678	16466
282.18781	16407
282.20883	16414
282.22986	16487
282.25085	16454
282.27188	16507
282.29291	16508
282.31393	16438
