Date and Time:                Mon Oct 17 11:54:19.000 2022
Software Version:             4.31.30023.0
Temperature (C):              -40
Model:                        DU940P_BU2
Data Type:                    Counts
Acquisition Mode:             Single Scan
Trigger Mode:                 Internal
Exposure Time (secs):         0.2
Readout Mode:                 Full Vertical Binning
Horizontal binning:           1
Extended Dynamic Range:       off
Horizontally flipped:         false
Vertical Shift Speed (usecs): 14.51
Pixel Readout Rate (MHz):     3
Baseline Clamp:               ON
Clock Amplitude:              Normal
Output Amplifier:             High Capacity
Serial Number:                23634
Pre-Amplifier Gain:           1.000000
Spurious Noise Filter Mode:   No Filter
Photon counted:               false
Data Averaging Filter Mode:   No Filter
SR500i:
Serial Number:                
Wavelength (nm):              279.6
Grating Groove Density (l/mm):1199.47
Grating Blaze:                500
Output Flipper Port:          Direct
Accessory Output Port 1:      Off
Accessory Output Port 2:      Off
Accessory Output Port 3:      Off
Accessory Input Port:         On



257.95227	4824
257.97354	4600
257.99478	4582
258.01605	4591
258.03732	4584
258.05856	4666
258.07983	4634
258.1011	4636
258.12234	4598
258.14362	4638
258.16489	4603
258.18613	4570
258.2074	4566
258.22864	4600
258.24991	4634
258.27118	4615
258.29242	4599
258.31369	4660
258.33493	4618
258.3562	4660
258.37744	4612
258.39871	4626
258.41998	4670
258.44122	4656
258.46249	4679
258.48373	4661
258.505	4691
258.52625	4723
258.54752	4714
258.56876	4684
258.59003	4723
258.61127	4730
258.63254	4748
258.65378	4766
258.67505	4768
258.69629	4752
258.71756	4776
258.7388	4813
258.76007	4820
258.78131	4818
258.80255	4782
258.82382	4767
258.84506	4725
258.86633	4789
258.88757	4812
258.90884	4835
258.93008	4792
258.95132	4853
258.9726	4820
258.99384	4857
259.01511	4858
259.03635	4879
259.05759	4885
259.07886	4872
259.1001	4883
259.12134	4920
259.14261	4935
259.16385	4963
259.18509	4952
259.20636	5008
259.2276	4978
259.24884	4962
259.27011	5005
259.29135	5016
259.31259	4984
259.33386	4965
259.3551	4979
259.37634	4972
259.39758	4969
259.41885	4923
259.44009	4959
259.46133	4946
259.48257	4951
259.50385	4990
259.52509	4988
259.54633	4967
259.56757	4969
259.58884	4967
259.61008	4975
259.63132	4964
259.65256	5041
259.6738	5057
259.69507	5004
259.71631	5089
259.73755	5114
259.75879	5108
259.78003	5154
259.80127	5119
259.82254	5127
259.84378	5105
259.86502	5134
259.88626	5110
259.9075	5098
259.92874	5106
259.94998	5137
259.97125	5158
259.99249	5168
260.01373	5172
260.03497	5179
260.05621	5272
260.07745	5242
260.09869	5222
260.11993	5235
260.14117	5226
260.16241	5282
260.18365	5261
260.2049	5329
260.22614	5349
260.24738	5338
260.26865	5354
260.28989	5327
260.31113	5319
260.33237	5372
260.35361	5347
260.37485	5376
260.39609	5374
260.41733	5342
260.43857	5384
260.45981	5420
260.48102	5406
260.50226	5375
260.5235	5394
260.54474	5421
260.56598	5387
260.58722	5385
260.60846	5379
260.6297	5355
260.65094	5342
260.67218	5377
260.69342	5396
260.71466	5404
260.7359	5426
260.75714	5383
260.77835	5404
260.79959	5415
260.82083	5376
260.84207	5407
260.86331	5391
260.88455	5394
260.90579	5391
260.927	5367
260.94824	5364
260.96948	5380
260.99072	5383
261.01196	5390
261.0332	5402
261.05441	5427
261.07565	5416
261.09689	5418
261.11813	5430
261.13937	5495
261.16058	5529
261.18182	5553
261.20306	5533
261.2243	5558
261.24551	5526
261.26675	5510
261.28799	5567
261.30923	5549
261.33044	5549
261.35168	5532
261.37292	5516
261.39413	5539
261.41537	5548
261.43661	5559
261.45782	5559
261.47906	5587
261.50031	5613
261.52155	5640
261.54276	5586
261.564	5594
261.58521	5632
261.60645	5646
261.62769	5705
261.6489	5705
261.67014	5754
261.69138	5786
261.71259	5795
261.73383	5783
261.75504	5771
261.77628	5774
261.79752	5761
261.81873	5800
261.83997	5797
261.86118	5780
261.88242	5778
261.90366	5741
261.92487	5765
261.94611	5757
261.96732	5713
261.98856	5721
262.00977	5738
262.03101	5704
262.05222	5732
262.07346	5734
262.09467	5752
262.11591	5790
262.13712	5818
262.15836	5859
262.17957	5814
262.20081	5873
262.22202	5850
262.24326	5893
262.26447	5872
262.28571	5905
262.30692	5865
262.32813	5851
262.34937	5868
262.37057	5796
262.39182	5851
262.41302	5877
262.43427	5896
262.45547	5875
262.47668	5881
262.49792	5888
262.51913	5876
262.54034	5905
262.56158	5888
262.58279	5982
262.60403	5983
262.62524	5990
262.64645	5989
262.66769	6026
262.6889	6022
262.71011	5979
262.73135	6005
262.75256	5976
262.77377	5994
262.79498	6020
262.81622	6052
262.83743	6015
262.85864	6015
262.87988	5970
262.90109	6038
262.9223	6098
262.94351	6091
262.96475	6116
262.98596	6162
263.00717	6149
263.02838	6129
263.04962	6170
263.07083	6202
263.09204	6209
263.11325	6284
263.13446	6235
263.1557	6262
263.17691	6289
263.19812	6298
263.21933	6287
263.24054	6311
263.26175	6315
263.28299	6267
263.3042	6299
263.32541	6254
263.34662	6245
263.36783	6309
263.38904	6260
263.41025	6244
263.43149	6230
263.4527	6201
263.47391	6246
263.49512	6313
263.51633	6324
263.53754	6292
263.55875	6359
263.57996	6400
263.60117	6403
263.62238	6391
263.64359	6378
263.66479	6389
263.686	6385
263.70721	6411
263.72842	6415
263.74963	6390
263.77084	6389
263.79205	6344
263.81326	6344
263.83447	6352
263.85568	6346
263.87689	6357
263.8981	6294
263.91931	6274
263.94052	6301
263.96173	6326
263.98294	6293
264.00415	6279
264.02536	6333
264.04657	6307
264.06778	6377
264.08899	6413
264.1102	6388
264.13141	6359
264.15262	6386
264.17383	6364
264.19501	6378
264.21622	6354
264.23743	6405
264.25864	6370
264.27985	6380
264.30106	6394
264.32227	6386
264.34344	6406
264.36465	6450
264.38586	6496
264.40707	6492
264.42828	6463
264.44949	6448
264.47067	6442
264.49188	6457
264.51309	6450
264.5343	6497
264.55548	6490
264.57669	6515
264.5979	6426
264.61911	6487
264.64032	6459
264.6615	6494
264.68271	6536
264.70392	6517
264.7251	6510
264.74631	6520
264.76752	6558
264.78873	6598
264.80991	6612
264.83112	6596
264.85233	6563
264.8735	6655
264.89471	6604
264.91592	6616
264.9371	6584
264.95831	6632
264.97952	6616
265.0007	6659
265.02191	6694
265.04312	6718
265.0643	6763
265.08551	6745
265.10669	6768
265.1279	6823
265.14911	6788
265.17029	6807
265.1915	6815
265.21268	6800
265.23389	6768
265.2551	6812
265.27628	6831
265.29749	6841
265.31866	6864
265.33987	6837
265.36105	6834
265.38226	6825
265.40344	6817
265.42465	6838
265.44583	6876
265.46704	6947
265.48822	6960
265.50943	6979
265.53061	6953
265.55182	6995
265.573	7010
265.59421	7049
265.61539	7072
265.6366	7113
265.65778	7073
265.67899	7062
265.70016	7023
265.72134	7034
265.74255	7033
265.76373	7034
265.78494	7098
265.80612	7201
265.8273	7239
265.84851	7188
265.86969	7128
265.8909	7092
265.91208	7142
265.93326	7189
265.95447	7215
265.97565	7217
265.99683	7286
266.01804	7276
266.03922	7246
266.06039	7207
266.0816	7210
266.10278	7238
266.12396	7305
266.14517	7352
266.16635	7335
266.18753	7310
266.20871	7278
266.22992	7318
266.2511	7262
266.27228	7249
266.29349	7286
266.31467	7291
266.33585	7226
266.35703	7294
266.3782	7256
266.39941	7267
266.42059	7253
266.44177	7325
266.46295	7344
266.48416	7454
266.50534	7422
266.52652	7396
266.5477	7392
266.56888	7362
266.59006	7353
266.61127	7314
266.63245	7383
266.65363	7355
266.6748	7353
266.69598	7343
266.71716	7386
266.73834	7448
266.75952	7371
266.78073	7387
266.80191	7398
266.82309	7388
266.84427	7425
266.86545	7391
266.88663	7521
266.90781	7630
266.92899	7642
266.95016	7647
266.97134	7671
266.99252	7636
267.0137	7649
267.03488	7577
267.05606	7560
267.07724	7574
267.09842	7578
267.1196	7618
267.14078	7594
267.16196	7608
267.18314	7624
267.20432	7617
267.22549	7672
267.24667	7729
267.26785	7790
267.28903	7764
267.31021	7717
267.33139	7731
267.35257	7739
267.37375	7763
267.39493	7869
267.41611	7970
267.43729	7971
267.45844	7956
267.47961	7931
267.50079	7944
267.52197	7975
267.54315	7968
267.56433	7971
267.58551	7965
267.60666	7976
267.62784	7946
267.64902	7946
267.6702	7928
267.69138	7947
267.71255	7917
267.7337	7946
267.75488	7902
267.77606	7906
267.79724	7967
267.81842	7944
267.83957	7959
267.86075	7958
267.88193	8027
267.90311	8087
267.92426	8133
267.94543	8144
267.96661	8148
267.98779	8145
268.00894	8132
268.03012	8163
268.0513	8108
268.07245	8134
268.09363	8163
268.11481	8115
268.13599	8112
268.15714	8110
268.17831	8153
268.19949	8144
268.22064	8175
268.24182	8171
268.26297	8159
268.28415	8146
268.30533	8182
268.32648	8119
268.34766	8125
268.36884	8188
268.38998	8228
268.41116	8232
268.43231	8321
268.45349	8260
268.47467	8234
268.49582	8278
268.517	8291
268.53815	8318
268.55933	8288
268.58047	8304
268.60165	8309
268.6228	8256
268.64398	8262
268.66513	8335
268.68631	8407
268.70746	8407
268.72864	8360
268.74979	8414
268.77097	8394
268.79211	8319
268.81329	8437
268.83444	8427
268.85562	8503
268.87677	8573
268.89795	8531
268.9191	8527
268.94028	8524
268.96143	8568
268.98257	8539
269.00375	8569
269.0249	8634
269.04608	8555
269.06723	8569
269.08838	8591
269.10956	8602
269.13071	8598
269.15189	8571
269.17303	8458
269.19418	8432
269.21536	8490
269.23651	8578
269.25766	8610
269.27884	8601
269.29999	8600
269.32114	8589
269.34232	8654
269.36346	8687
269.38461	8631
269.40576	8622
269.42694	8687
269.44809	8633
269.46924	8658
269.49039	8652
269.51157	8677
269.53271	8691
269.55386	8666
269.57501	8576
269.59619	8582
269.61734	8672
269.63849	8637
269.65964	8611
269.68079	8652
269.70197	8668
269.72311	8669
269.74426	8576
269.76541	8564
269.78656	8530
269.80771	8534
269.82889	8538
269.85004	8599
269.87119	8635
269.89233	8577
269.91348	8596
269.93463	8580
269.95578	8570
269.97696	8537
269.99811	8607
270.01926	8662
270.04041	8725
270.06155	8697
270.0827	8706
270.10385	8734
270.125	8777
270.14615	8782
270.1673	8852
270.18845	8790
270.20959	8796
270.23074	8782
270.25189	8777
270.27304	8715
270.29419	8730
270.31534	8745
270.33649	8760
270.35764	8824
270.37878	8856
270.39993	8934
270.42108	8845
270.44223	8945
270.46338	8958
270.48453	8934
270.50568	8964
270.52682	8950
270.54797	9010
270.56912	8990
270.59027	8960
270.61139	8922
270.63254	8920
270.65369	8910
270.67484	8930
270.69598	9011
270.71713	8998
270.73828	9014
270.75943	8961
270.78055	8944
270.8017	8931
270.82285	8941
270.84399	8951
270.86514	8997
270.88629	9048
270.90741	9039
270.92856	8986
270.94971	8956
270.97086	9049
270.99197	9075
271.01312	9083
271.03427	9141
271.05542	9126
271.07657	9117
271.09769	9078
271.11884	8960
271.13998	8857
271.1611	8900
271.18225	8932
271.2034	8966
271.22455	9060
271.24567	9043
271.26682	9028
271.28796	9099
271.30908	9100
271.33023	9135
271.35138	9158
271.3725	9191
271.39365	9219
271.41479	9200
271.43591	9203
271.45706	9132
271.47818	9138
271.49933	9175
271.52048	9151
271.5416	9207
271.56274	9318
271.58386	9371
271.60501	9293
271.62616	9269
271.64728	9330
271.66843	9358
271.68954	9467
271.71069	9477
271.73181	9544
271.75296	9558
271.77408	9579
271.79523	9572
271.81635	9546
271.83749	9539
271.85861	9493
271.87976	9588
271.90088	9544
271.92203	9551
271.94315	9558
271.96429	9589
271.98541	9510
272.00656	9556
272.02768	9520
272.04883	9492
272.06995	9488
272.09106	9422
272.11221	9442
272.13333	9432
272.15448	9395
272.1756	9470
272.19672	9524
272.21786	9533
272.23898	9579
272.26013	9594
272.28125	9617
272.30237	9596
272.32352	9557
272.34464	9577
272.36575	9595
272.3869	9614
272.40802	9615
272.42914	9552
272.45029	9521
272.47141	9540
272.49252	9539
272.51364	9562
272.53479	9548
272.55591	9537
272.57703	9562
272.59818	9549
272.61929	9573
272.64041	9707
272.66153	9759
272.68265	9784
272.7038	9766
272.72491	9779
272.74603	9778
272.76715	9753
272.78827	9704
272.80942	9712
272.83054	9692
272.85165	9786
272.87277	9724
272.89389	9770
272.91504	9690
272.93616	9765
272.95728	9765
272.97839	9892
272.99951	9969
273.02063	9952
273.04175	9910
273.06287	9853
273.08398	9843
273.10513	9890
273.12625	10026
273.14737	10030
273.16849	10141
273.18961	10225
273.21072	10160
273.23184	10201
273.25296	10154
273.27408	10150
273.2952	10210
273.31631	10189
273.33743	10175
273.35855	10139
273.37967	10187
273.40079	10123
273.42191	10140
273.44302	10072
273.46414	9991
273.48526	10013
273.50638	10093
273.5275	10098
273.54861	10191
273.56973	10174
273.59085	10143
273.61197	10151
273.63306	10292
273.65417	10400
273.67529	10349
273.69641	10376
273.71753	10425
273.73865	10418
273.75977	10402
273.78088	10399
273.802	10373
273.82309	10439
273.84421	10425
273.86533	10320
273.88644	10360
273.90756	10355
273.92868	10362
273.94977	10367
273.97089	10425
273.992	10443
274.01312	10453
274.03424	10366
274.05533	10306
274.07645	10402
274.09756	10395
274.11868	10435
274.13977	10418
274.16089	10483
274.18201	10456
274.20313	10373
274.22421	10339
274.24533	10403
274.26645	10441
274.28754	10498
274.30865	10549
274.32977	10567
274.35086	10513
274.37198	10477
274.3931	10489
274.41418	10593
274.4353	10661
274.45642	10665
274.47751	10655
274.49863	10593
274.51974	10575
274.54083	10556
274.56195	10632
274.58304	10727
274.60416	10854
274.62527	10820
274.64636	10807
274.66748	10883
274.68857	10840
274.70969	10911
274.73077	10899
274.75189	10933
274.77298	10878
274.7941	10839
274.81519	10831
274.8363	10896
274.85739	10914
274.87851	10973
274.8996	10855
274.92072	10827
274.9418	10809
274.96292	10814
274.98401	10923
275.00513	10955
275.02621	10993
275.04733	10962
275.06842	10975
275.08954	11071
275.11063	11077
275.13171	11038
275.15283	11053
275.17392	11037
275.19504	11071
275.21613	11001
275.23721	11045
275.25833	11106
275.27942	11092
275.30051	11060
275.32162	11030
275.34271	11116
275.3638	11187
275.38492	11197
275.40601	11208
275.42709	11198
275.44821	11175
275.4693	11158
275.49039	11026
275.51151	10973
275.53259	10940
275.55368	10943
275.57477	11098
275.59589	11122
275.61697	11145
275.63806	11107
275.65915	11077
275.68027	11044
275.70135	11045
275.72244	11073
275.74353	11127
275.76462	11207
275.78574	11286
275.80682	11200
275.82791	11200
275.849	11279
275.87009	11396
275.89117	11370
275.91229	11362
275.93338	11407
275.95447	11456
275.97556	11361
275.99664	11254
276.01773	11222
276.03882	11217
276.05991	11268
276.08102	11344
276.10211	11412
276.1232	11476
276.14429	11516
276.16537	11541
276.18646	11608
276.20755	11647
276.22864	11649
276.24973	11674
276.27081	11743
276.2919	11872
276.31299	11806
276.33408	11738
276.35516	11814
276.37625	11779
276.39734	11751
276.41843	11748
276.43951	11826
276.4606	11814
276.48169	11804
276.50278	11746
276.52386	11764
276.54495	11811
276.56604	11821
276.58713	11879
276.60818	11920
276.62927	11907
276.65036	11806
276.67145	11760
276.69254	11882
276.71362	11861
276.73471	11977
276.7558	11930
276.77689	12090
276.79794	12067
276.81903	12031
276.84012	11983
276.86121	11868
276.88229	11806
276.90335	11804
276.92444	11853
276.94553	11868
276.96661	11915
276.9877	11916
277.00876	11934
277.02985	11957
277.05093	12000
277.07202	11915
277.09308	12022
277.11417	11967
277.13525	12020
277.15634	12043
277.1774	11980
277.19849	11952
277.21957	11988
277.24063	11898
277.26172	11921
277.28281	12052
277.30386	12229
277.32495	12215
277.34604	12166
277.3671	12132
277.38818	12142
277.40927	12223
277.43033	12314
277.45142	12356
277.4725	12476
277.49356	12515
277.51465	12475
277.53571	12532
277.55679	12526
277.57788	12546
277.59894	12585
277.62003	12603
277.64108	12621
277.66217	12555
277.68323	12614
277.70432	12585
277.72537	12609
277.74646	12630
277.76752	12609
277.7886	12543
277.80966	12514
277.83075	12502
277.85181	12516
277.87289	12522
277.89395	12566
277.91504	12697
277.9361	12758
277.95718	12876
277.97824	12809
277.99933	12839
278.02039	12927
278.04144	12901
278.06253	12804
278.08359	12761
278.10468	12810
278.12573	12831
278.14679	12818
278.16788	12732
278.18893	12759
278.20999	12716
278.23108	12756
278.25214	12771
278.27322	12710
278.29428	12643
278.31534	12648
278.3364	12680
278.35748	12701
278.37854	12814
278.3996	12943
278.42068	13040
278.44174	12976
278.4628	12955
278.48386	12901
278.50494	12847
278.526	12914
278.54706	12870
278.56812	12925
278.5892	13070
278.61026	13117
278.63132	13090
278.65237	13067
278.67343	13127
278.69452	13202
278.71558	13323
278.73663	13474
278.75769	13507
278.77875	13445
278.79984	13352
278.82089	13281
278.84195	13304
278.86301	13346
278.88406	13559
278.90512	13663
278.92618	13781
278.94724	13726
278.96829	13729
278.98938	13686
279.01044	13719
279.03149	13680
279.05255	13676
279.07361	13696
279.09467	13649
279.11572	13595
279.13678	13623
279.15784	13577
279.17889	13489
279.19995	13436
279.22101	13615
279.24207	13732
279.26312	13815
279.28418	13732
279.30524	13663
279.32629	13662
279.34735	13815
279.36841	13964
279.38947	14091
279.41052	14015
279.43158	14006
279.45264	14110
279.47366	14198
279.49472	14187
279.51578	13949
279.53683	13982
279.55789	13996
279.57895	14021
279.60001	14065
279.62106	14073
279.64212	14139
279.66315	14192
279.6842	14354
279.70526	14396
279.72632	14472
279.74738	14388
279.76843	14336
279.78946	14330
279.81052	14294
279.83157	14387
279.85263	14463
279.87366	14509
279.89471	14495
279.91577	14472
279.93683	14353
279.95786	14424
279.97891	14424
279.99997	14468
280.02103	14578
280.04205	14695
280.06311	14679
280.08417	14637
280.10519	14686
280.12625	14778
280.14731	14799
280.16833	14773
280.18939	14870
280.21045	14856
280.23148	14841
280.25253	14823
280.27359	14801
280.29462	14847
280.31567	14871
280.33673	14860
280.35776	14993
280.37881	14959
280.39984	15017
280.4209	15093
280.44196	15070
280.46298	15088
280.48404	15238
280.50507	15252
280.52612	15275
280.54715	15333
280.56821	15330
280.58923	15333
280.61029	15215
280.63132	15162
280.65237	15202
280.6734	15333
280.69446	15424
280.71548	15462
280.73654	15457
280.75757	15498
280.77863	15489
280.79965	15440
280.82071	15428
280.84174	15467
280.86276	15515
280.88382	15564
280.90485	15534
280.9259	15508
280.94693	15436
280.96796	15551
280.98901	15606
281.01004	15569
281.03107	15525
281.05212	15686
281.07315	15713
281.09421	15786
281.11523	15658
281.13626	15545
281.15729	15507
281.17834	15481
281.19937	15293
281.2204	15095
281.24146	15057
281.26248	15043
281.28351	15052
281.30453	15211
281.32559	15228
281.34662	15221
281.36765	15190
281.38867	15187
281.40973	15228
281.43076	15191
281.45178	15278
281.47281	15411
281.49384	15536
281.51489	15651
281.53592	15523
281.55695	15554
281.57797	15686
281.599	15801
281.62006	15839
281.64108	15880
281.66211	15847
281.68314	15766
281.70416	15618
281.72519	15594
281.74622	15629
281.76724	15635
281.78827	15638
281.80933	15835
281.83035	15980
281.85138	16074
281.87241	15969
281.89343	15893
281.91446	15905
281.93549	16119
281.95651	16206
281.97754	16290
281.99857	16328
282.01959	16433
282.04062	16404
282.06165	16380
282.08267	16322
282.1037	16245
282.12473	16202
282.14575	16248
282.16678	16293
282.18781	16344
282.20883	16287
282.22986	16250
282.25085	16310
282.27188	16410
282.29291	16408
282.31393	16368
282.33496	16467
