Date and Time:                Mon Oct 17 11:53:06.000 2022
Software Version:             4.31.30023.0
Temperature (C):              -40
Model:                        DU940P_BU2
Data Type:                    Counts
Acquisition Mode:             Single Scan
Trigger Mode:                 Internal
Exposure Time (secs):         0.2
Readout Mode:                 Full Vertical Binning
Horizontal binning:           1
Extended Dynamic Range:       off
Horizontally flipped:         false
Vertical Shift Speed (usecs): 14.51
Pixel Readout Rate (MHz):     3
Baseline Clamp:               ON
Clock Amplitude:              Normal
Output Amplifier:             High Capacity
Serial Number:                23634
Pre-Amplifier Gain:           1.000000
Spurious Noise Filter Mode:   No Filter
Photon counted:               false
Data Averaging Filter Mode:   No Filter
SR500i:
Serial Number:                
Wavelength (nm):              279.6
Grating Groove Density (l/mm):1199.47
Grating Blaze:                500
Output Flipper Port:          Direct
Accessory Output Port 1:      Off
Accessory Output Port 2:      Off
Accessory Output Port 3:      Off
Accessory Input Port:         On



257.95227	4803
257.97354	4599
257.99478	4583
258.01605	4568
258.03732	4561
258.05856	4643
258.07983	4618
258.1011	4608
258.12234	4601
258.14362	4608
258.16489	4612
258.18613	4579
258.2074	4565
258.22864	4562
258.24991	4610
258.27118	4603
258.29242	4603
258.31369	4610
258.33493	4624
258.3562	4608
258.37744	4626
258.39871	4627
258.41998	4657
258.44122	4643
258.46249	4656
258.48373	4661
258.505	4698
258.52625	4719
258.54752	4682
258.56876	4704
258.59003	4716
258.61127	4757
258.63254	4742
258.65378	4776
258.67505	4755
258.69629	4752
258.71756	4770
258.7388	4779
258.76007	4813
258.78131	4798
258.80255	4789
258.82382	4763
258.84506	4747
258.86633	4725
258.88757	4774
258.90884	4816
258.93008	4832
258.95132	4820
258.9726	4832
258.99384	4852
259.01511	4846
259.03635	4858
259.05759	4884
259.07886	4871
259.1001	4912
259.12134	4908
259.14261	4937
259.16385	4932
259.18509	4980
259.20636	4978
259.2276	4957
259.24884	4961
259.27011	5015
259.29135	4952
259.31259	5014
259.33386	4971
259.3551	5001
259.37634	4984
259.39758	4932
259.41885	4936
259.44009	4922
259.46133	4956
259.48257	4948
259.50385	4946
259.52509	5006
259.54633	4979
259.56757	4959
259.58884	4961
259.61008	4987
259.63132	4939
259.65256	4988
259.6738	5027
259.69507	5025
259.71631	5040
259.73755	5079
259.75879	5098
259.78003	5127
259.80127	5106
259.82254	5098
259.84378	5110
259.86502	5130
259.88626	5156
259.9075	5089
259.92874	5131
259.94998	5131
259.97125	5172
259.99249	5183
260.01373	5134
260.03497	5222
260.05621	5218
260.07745	5268
260.09869	5186
260.11993	5236
260.14117	5250
260.16241	5242
260.18365	5271
260.2049	5360
260.22614	5373
260.24738	5338
260.26865	5340
260.28989	5302
260.31113	5322
260.33237	5327
260.35361	5341
260.37485	5361
260.39609	5375
260.41733	5345
260.43857	5369
260.45981	5386
260.48102	5384
260.50226	5395
260.5235	5422
260.54474	5424
260.56598	5379
260.58722	5415
260.60846	5362
260.6297	5316
260.65094	5323
260.67218	5345
260.69342	5403
260.71466	5393
260.7359	5400
260.75714	5428
260.77835	5403
260.79959	5356
260.82083	5376
260.84207	5372
260.86331	5359
260.88455	5409
260.90579	5376
260.927	5354
260.94824	5355
260.96948	5385
260.99072	5375
261.01196	5389
261.0332	5406
261.05441	5403
261.07565	5412
261.09689	5414
261.11813	5462
261.13937	5481
261.16058	5518
261.18182	5540
261.20306	5519
261.2243	5510
261.24551	5504
261.26675	5506
261.28799	5540
261.30923	5534
261.33044	5518
261.35168	5512
261.37292	5522
261.39413	5495
261.41537	5521
261.43661	5529
261.45782	5550
261.47906	5595
261.50031	5623
261.52155	5604
261.54276	5624
261.564	5573
261.58521	5587
261.60645	5647
261.62769	5677
261.6489	5687
261.67014	5751
261.69138	5774
261.71259	5771
261.73383	5782
261.75504	5736
261.77628	5719
261.79752	5737
261.81873	5763
261.83997	5785
261.86118	5748
261.88242	5749
261.90366	5744
261.92487	5782
261.94611	5758
261.96732	5721
261.98856	5705
262.00977	5723
262.03101	5714
262.05222	5713
262.07346	5745
262.09467	5739
262.11591	5821
262.13712	5813
262.15836	5829
262.17957	5810
262.20081	5894
262.22202	5846
262.24326	5886
262.26447	5847
262.28571	5866
262.30692	5853
262.32813	5871
262.34937	5857
262.37057	5813
262.39182	5855
262.41302	5851
262.43427	5861
262.45547	5881
262.47668	5880
262.49792	5911
262.51913	5881
262.54034	5870
262.56158	5880
262.58279	5939
262.60403	5982
262.62524	5992
262.64645	6030
262.66769	6003
262.6889	6003
262.71011	5983
262.73135	5952
262.75256	5987
262.77377	5989
262.79498	6031
262.81622	6010
262.83743	5972
262.85864	5947
262.87988	5943
262.90109	6021
262.9223	6047
262.94351	6093
262.96475	6157
262.98596	6160
263.00717	6096
263.02838	6129
263.04962	6157
263.07083	6193
263.09204	6232
263.11325	6272
263.13446	6235
263.1557	6183
263.17691	6246
263.19812	6252
263.21933	6248
263.24054	6309
263.26175	6315
263.28299	6275
263.3042	6293
263.32541	6274
263.34662	6287
263.36783	6263
263.38904	6237
263.41025	6211
263.43149	6227
263.4527	6232
263.47391	6245
263.49512	6314
263.51633	6305
263.53754	6298
263.55875	6308
263.57996	6364
263.60117	6372
263.62238	6370
263.64359	6378
263.66479	6371
263.686	6379
263.70721	6391
263.72842	6369
263.74963	6370
263.77084	6378
263.79205	6337
263.81326	6300
263.83447	6303
263.85568	6378
263.87689	6332
263.8981	6290
263.91931	6281
263.94052	6286
263.96173	6273
263.98294	6285
264.00415	6284
264.02536	6297
264.04657	6354
264.06778	6321
264.08899	6379
264.1102	6337
264.13141	6340
264.15262	6369
264.17383	6346
264.19501	6354
264.21622	6348
264.23743	6384
264.25864	6390
264.27985	6380
264.30106	6366
264.32227	6404
264.34344	6387
264.36465	6408
264.38586	6499
264.40707	6504
264.42828	6457
264.44949	6467
264.47067	6455
264.49188	6432
264.51309	6441
264.5343	6452
264.55548	6487
264.57669	6442
264.5979	6443
264.61911	6448
264.64032	6509
264.6615	6507
264.68271	6488
264.70392	6515
264.7251	6533
264.74631	6523
264.76752	6529
264.78873	6591
264.80991	6604
264.83112	6638
264.85233	6612
264.8735	6645
264.89471	6590
264.91592	6581
264.9371	6633
264.95831	6637
264.97952	6649
265.0007	6651
265.02191	6692
265.04312	6730
265.0643	6754
265.08551	6736
265.10669	6789
265.1279	6798
265.14911	6807
265.17029	6777
265.1915	6780
265.21268	6770
265.23389	6749
265.2551	6785
265.27628	6842
265.29749	6852
265.31866	6819
265.33987	6793
265.36105	6791
265.38226	6821
265.40344	6776
265.42465	6850
265.44583	6884
265.46704	6930
265.48822	6957
265.50943	6940
265.53061	6944
265.55182	6959
265.573	6977
265.59421	7041
265.61539	7052
265.6366	7096
265.65778	7098
265.67899	7052
265.70016	7046
265.72134	7040
265.74255	6981
265.76373	7031
265.78494	7129
265.80612	7140
265.8273	7205
265.84851	7172
265.86969	7133
265.8909	7094
265.91208	7127
265.93326	7177
265.95447	7193
265.97565	7244
265.99683	7288
266.01804	7252
266.03922	7224
266.06039	7214
266.0816	7218
266.10278	7191
266.12396	7259
266.14517	7315
266.16635	7270
266.18753	7274
266.20871	7218
266.22992	7257
266.2511	7254
266.27228	7280
266.29349	7277
266.31467	7290
266.33585	7281
266.35703	7289
266.3782	7276
266.39941	7237
266.42059	7295
266.44177	7283
266.46295	7359
266.48416	7365
266.50534	7422
266.52652	7413
266.5477	7400
266.56888	7392
266.59006	7360
266.61127	7349
266.63245	7348
266.65363	7340
266.6748	7358
266.69598	7309
266.71716	7381
266.73834	7404
266.75952	7384
266.78073	7396
266.80191	7404
266.82309	7390
266.84427	7428
266.86545	7442
266.88663	7486
266.90781	7599
266.92899	7631
266.95016	7586
266.97134	7641
266.99252	7627
267.0137	7609
267.03488	7555
267.05606	7554
267.07724	7607
267.09842	7608
267.1196	7634
267.14078	7585
267.16196	7597
267.18314	7596
267.20432	7625
267.22549	7675
267.24667	7694
267.26785	7785
267.28903	7790
267.31021	7740
267.33139	7701
267.35257	7708
267.37375	7813
267.39493	7847
267.41611	7930
267.43729	7983
267.45844	7976
267.47961	7962
267.50079	8030
267.52197	7973
267.54315	7937
267.56433	7976
267.58551	7969
267.60666	7961
267.62784	7916
267.64902	7955
267.6702	7933
267.69138	7968
267.71255	7918
267.7337	7921
267.75488	7913
267.77606	7930
267.79724	7894
267.81842	7930
267.83957	7909
267.86075	7933
267.88193	7997
267.90311	8051
267.92426	8124
267.94543	8126
267.96661	8120
267.98779	8104
268.00894	8112
268.03012	8109
268.0513	8125
268.07245	8089
268.09363	8131
268.11481	8113
268.13599	8074
268.15714	8104
268.17831	8170
268.19949	8159
268.22064	8185
268.24182	8148
268.26297	8180
268.28415	8191
268.30533	8147
268.32648	8080
268.34766	8173
268.36884	8196
268.38998	8260
268.41116	8278
268.43231	8260
268.45349	8208
268.47467	8231
268.49582	8225
268.517	8315
268.53815	8305
268.55933	8299
268.58047	8301
268.60165	8290
268.6228	8298
268.64398	8276
268.66513	8370
268.68631	8355
268.70746	8373
268.72864	8396
268.74979	8390
268.77097	8390
268.79211	8329
268.81329	8391
268.83444	8409
268.85562	8511
268.87677	8529
268.89795	8552
268.9191	8492
268.94028	8561
268.96143	8525
268.98257	8535
269.00375	8556
269.0249	8605
269.04608	8564
269.06723	8547
269.08838	8598
269.10956	8604
269.13071	8633
269.15189	8540
269.17303	8477
269.19418	8444
269.21536	8509
269.23651	8527
269.25766	8614
269.27884	8568
269.29999	8587
269.32114	8603
269.34232	8629
269.36346	8613
269.38461	8636
269.40576	8625
269.42694	8641
269.44809	8648
269.46924	8682
269.49039	8643
269.51157	8670
269.53271	8717
269.55386	8630
269.57501	8608
269.59619	8578
269.61734	8636
269.63849	8655
269.65964	8671
269.68079	8669
269.70197	8652
269.72311	8640
269.74426	8583
269.76541	8523
269.78656	8537
269.80771	8544
269.82889	8557
269.85004	8601
269.87119	8648
269.89233	8602
269.91348	8532
269.93463	8569
269.95578	8555
269.97696	8551
269.99811	8582
270.01926	8709
270.04041	8731
270.06155	8698
270.0827	8676
270.10385	8677
270.125	8784
270.14615	8791
270.1673	8773
270.18845	8799
270.20959	8844
270.23074	8774
270.25189	8736
270.27304	8725
270.29419	8761
270.31534	8751
270.33649	8768
270.35764	8766
270.37878	8842
270.39993	8899
270.42108	8865
270.44223	8872
270.46338	8881
270.48453	8959
270.50568	8968
270.52682	8972
270.54797	8992
270.56912	8988
270.59027	8938
270.61139	8932
270.63254	8915
270.65369	8864
270.67484	8899
270.69598	8984
270.71713	9022
270.73828	9024
270.75943	8958
270.78055	8924
270.8017	8969
270.82285	8954
270.84399	8990
270.86514	8937
270.88629	9029
270.90741	8987
270.92856	8960
270.94971	8977
270.97086	9062
270.99197	9046
271.01312	9041
271.03427	9104
271.05542	9101
271.07657	9094
271.09769	9068
271.11884	8941
271.13998	8904
271.1611	8936
271.18225	8959
271.2034	8973
271.22455	9007
271.24567	9063
271.26682	9054
271.28796	9110
271.30908	9112
271.33023	9162
271.35138	9108
271.3725	9191
271.39365	9195
271.41479	9199
271.43591	9174
271.45706	9179
271.47818	9169
271.49933	9151
271.52048	9155
271.5416	9196
271.56274	9307
271.58386	9381
271.60501	9344
271.62616	9280
271.64728	9312
271.66843	9355
271.68954	9433
271.71069	9506
271.73181	9512
271.75296	9539
271.77408	9564
271.79523	9568
271.81635	9549
271.83749	9480
271.85861	9483
271.87976	9527
271.90088	9576
271.92203	9601
271.94315	9537
271.96429	9555
271.98541	9562
272.00656	9516
272.02768	9492
272.04883	9457
272.06995	9474
272.09106	9465
272.11221	9453
272.13333	9413
272.15448	9350
272.1756	9447
272.19672	9572
272.21786	9567
272.23898	9605
272.26013	9569
272.28125	9579
272.30237	9583
272.32352	9549
272.34464	9596
272.36575	9573
272.3869	9593
272.40802	9654
272.42914	9521
272.45029	9540
272.47141	9518
272.49252	9562
272.51364	9565
272.53479	9504
272.55591	9579
272.57703	9541
272.59818	9563
272.61929	9627
272.64041	9694
272.66153	9730
272.68265	9799
272.7038	9798
272.72491	9786
272.74603	9803
272.76715	9744
272.78827	9706
272.80942	9667
272.83054	9725
272.85165	9773
272.87277	9742
272.89389	9767
272.91504	9728
272.93616	9741
272.95728	9761
272.97839	9899
272.99951	9965
273.02063	9918
273.04175	9927
273.06287	9881
273.08398	9807
273.10513	9939
273.12625	10007
273.14737	10043
273.16849	10194
273.18961	10181
273.21072	10166
273.23184	10195
273.25296	10164
273.27408	10182
273.2952	10220
273.31631	10186
273.33743	10163
273.35855	10138
273.37967	10167
273.40079	10182
273.42191	10115
273.44302	10052
273.46414	10002
273.48526	9987
273.50638	10109
273.5275	10130
273.54861	10142
273.56973	10166
273.59085	10121
273.61197	10199
273.63306	10347
273.65417	10357
273.67529	10328
273.69641	10334
273.71753	10388
273.73865	10425
273.75977	10362
273.78088	10411
273.802	10351
273.82309	10459
273.84421	10407
273.86533	10284
273.88644	10330
273.90756	10407
273.92868	10350
273.94977	10382
273.97089	10415
273.992	10436
274.01312	10410
274.03424	10364
274.05533	10313
274.07645	10333
274.09756	10400
274.11868	10447
274.13977	10456
274.16089	10472
274.18201	10456
274.20313	10411
274.22421	10346
274.24533	10354
274.26645	10472
274.28754	10494
274.30865	10540
274.32977	10587
274.35086	10504
274.37198	10485
274.3931	10505
274.41418	10654
274.4353	10632
274.45642	10664
274.47751	10676
274.49863	10671
274.51974	10577
274.54083	10601
274.56195	10634
274.58304	10725
274.60416	10841
274.62527	10841
274.64636	10833
274.66748	10823
274.68857	10876
274.70969	10932
274.73077	10872
274.75189	10870
274.77298	10917
274.7941	10808
274.81519	10825
274.8363	10924
274.85739	10929
274.87851	10953
274.8996	10880
274.92072	10812
274.9418	10732
274.96292	10849
274.98401	10930
275.00513	11031
275.02621	10992
275.04733	10938
275.06842	10979
275.08954	11042
275.11063	11061
275.13171	11034
275.15283	11036
275.17392	11034
275.19504	11052
275.21613	11010
275.23721	11064
275.25833	11077
275.27942	11091
275.30051	11030
275.32162	11021
275.34271	11098
275.3638	11228
275.38492	11199
275.40601	11244
275.42709	11245
275.44821	11220
275.4693	11134
275.49039	11031
275.51151	10967
275.53259	11015
275.55368	10987
275.57477	11066
275.59589	11147
275.61697	11125
275.63806	11095
275.65915	11036
275.68027	10992
275.70135	11032
275.72244	11045
275.74353	11206
275.76462	11261
275.78574	11271
275.80682	11259
275.82791	11164
275.849	11281
275.87009	11366
275.89117	11274
275.91229	11371
275.93338	11396
275.95447	11423
275.97556	11309
275.99664	11245
276.01773	11175
276.03882	11279
276.05991	11215
276.08102	11261
276.10211	11475
276.1232	11500
276.14429	11534
276.16537	11503
276.18646	11581
276.20755	11611
276.22864	11683
276.24973	11662
276.27081	11773
276.2919	11774
276.31299	11823
276.33408	11739
276.35516	11795
276.37625	11771
276.39734	11748
276.41843	11777
276.43951	11838
276.4606	11790
276.48169	11872
276.50278	11761
276.52386	11728
276.54495	11757
276.56604	11852
276.58713	11878
276.60818	11931
276.62927	11930
276.65036	11779
276.67145	11756
276.69254	11837
276.71362	11901
276.73471	11917
276.7558	11935
276.77689	12015
276.79794	12087
276.81903	12081
276.84012	11936
276.86121	11851
276.88229	11825
276.90335	11796
276.92444	11890
276.94553	11862
276.96661	12013
276.9877	11889
277.00876	11951
277.02985	11916
277.05093	11949
277.07202	11985
277.09308	11961
277.11417	12033
277.13525	12057
277.15634	12061
277.1774	11990
277.19849	11961
277.21957	11879
277.24063	11938
277.26172	11935
277.28281	12064
277.30386	12213
277.32495	12248
277.34604	12159
277.3671	12163
277.38818	12148
277.40927	12252
277.43033	12287
277.45142	12380
277.4725	12493
277.49356	12510
277.51465	12460
277.53571	12481
277.55679	12499
277.57788	12524
277.59894	12541
277.62003	12631
277.64108	12638
277.66217	12608
277.68323	12570
277.70432	12604
277.72537	12595
277.74646	12611
277.76752	12593
277.7886	12540
277.80966	12506
277.83075	12488
277.85181	12479
277.87289	12592
277.89395	12587
277.91504	12683
277.9361	12822
277.95718	12865
277.97824	12892
277.99933	12849
278.02039	12943
278.04144	12807
278.06253	12799
278.08359	12793
278.10468	12782
278.12573	12899
278.14679	12813
278.16788	12720
278.18893	12671
278.20999	12757
278.23108	12792
278.25214	12729
278.27322	12735
278.29428	12665
278.31534	12709
278.3364	12624
278.35748	12765
278.37854	12879
278.3996	12923
278.42068	12997
278.44174	12982
278.4628	12994
278.48386	12917
278.50494	12863
278.526	12901
278.54706	12935
278.56812	12929
278.5892	13052
278.61026	13122
278.63132	13098
278.65237	13070
278.67343	13106
278.69452	13229
278.71558	13376
278.73663	13445
278.75769	13513
278.77875	13499
278.79984	13357
278.82089	13335
278.84195	13373
278.86301	13397
278.88406	13549
278.90512	13734
278.92618	13790
278.94724	13674
278.96829	13725
278.98938	13693
279.01044	13732
279.03149	13730
279.05255	13707
279.07361	13692
279.09467	13632
279.11572	13620
279.13678	13617
279.15784	13532
279.17889	13540
279.19995	13449
279.22101	13633
279.24207	13675
279.26312	13850
279.28418	13726
279.30524	13693
279.32629	13646
279.34735	13755
279.36841	13977
279.38947	14100
279.41052	14066
279.43158	14065
279.45264	14080
279.47366	14214
279.49472	14126
279.51578	14009
279.53683	13995
279.55789	14009
279.57895	14020
279.60001	14044
279.62106	14065
279.64212	14134
279.66315	14173
279.6842	14367
279.70526	14454
279.72632	14528
279.74738	14404
279.76843	14333
279.78946	14365
279.81052	14281
279.83157	14353
279.85263	14463
279.87366	14474
279.89471	14532
279.91577	14495
279.93683	14392
279.95786	14394
279.97891	14440
279.99997	14515
280.02103	14580
280.04205	14652
280.06311	14707
280.08417	14701
280.10519	14684
280.12625	14780
280.14731	14774
280.16833	14761
280.18939	14848
280.21045	14870
280.23148	14852
280.25253	14881
280.27359	14824
280.29462	14840
280.31567	14866
280.33673	14942
280.35776	14937
280.37881	15020
280.39984	15024
280.4209	15109
280.44196	15071
280.46298	15161
280.48404	15236
280.50507	15282
280.52612	15240
280.54715	15228
280.56821	15285
280.58923	15300
280.61029	15212
280.63132	15170
280.65237	15256
280.6734	15312
280.69446	15427
280.71548	15502
280.73654	15524
280.75757	15530
280.77863	15439
280.79965	15509
280.82071	15408
280.84174	15531
280.86276	15569
280.88382	15553
280.90485	15563
280.9259	15539
280.94693	15491
280.96796	15504
280.98901	15631
281.01004	15650
281.03107	15574
281.05212	15709
281.07315	15741
281.09421	15730
281.11523	15689
281.13626	15658
281.15729	15556
281.17834	15476
281.19937	15284
281.2204	15148
281.24146	15127
281.26248	15078
281.28351	15061
281.30453	15195
281.32559	15235
281.34662	15257
281.36765	15249
281.38867	15201
281.40973	15270
281.43076	15308
281.45178	15305
281.47281	15442
281.49384	15513
281.51489	15640
281.53592	15573
281.55695	15596
281.57797	15730
281.599	15806
281.62006	15827
281.64108	15878
281.66211	15873
281.68314	15771
281.70416	15611
281.72519	15602
281.74622	15682
281.76724	15648
281.78827	15662
281.80933	15830
281.83035	15956
281.85138	16073
281.87241	15996
281.89343	15948
281.91446	16013
281.93549	16018
281.95651	16266
281.97754	16284
281.99857	16378
282.01959	16454
282.04062	16399
282.06165	16375
282.08267	16353
282.1037	16227
282.12473	16203
282.14575	16245
282.16678	16276
282.18781	16301
282.20883	16260
282.22986	16308
282.25085	16358
282.27188	16384
282.29291	16380
282.31393	16388
282.33496	16504
