Date and Time:                Wed May 25 13:04:41.000 2022
Software Version:             4.31.30023.0
Temperature (C):              -40
Model:                        DU940P_BU2
Data Type:                    Counts
Acquisition Mode:             Single Scan
Trigger Mode:                 Internal
Exposure Time (secs):         0.55
Readout Mode:                 Full Vertical Binning
Horizontal binning:           1
Extended Dynamic Range:       off
Horizontally flipped:         false
Vertical Shift Speed (usecs): 14.51
Pixel Readout Rate (MHz):     3
Baseline Clamp:               ON
Clock Amplitude:              Normal
Output Amplifier:             High Capacity
Serial Number:                23634
Pre-Amplifier Gain:           1.000000
Spurious Noise Filter Mode:   No Filter
Photon counted:               false
Data Averaging Filter Mode:   No Filter
SR500i:
Serial Number:                
Wavelength (nm):              262
Grating Groove Density (l/mm):2400
Grating Blaze:                BH
Output Flipper Port:          Direct
Accessory Output Port 1:      Off
Accessory Output Port 2:      Off
Accessory Output Port 3:      Off
Accessory Input Port:         On



251.94595	17642
251.95586	16798
251.96576	16912
251.97566	17007
251.98557	16906
251.99545	16914
252.00536	16795
252.01526	16819
252.02516	16990
252.03505	16990
252.04495	16973
252.05486	16882
252.06476	16894
252.07465	17011
252.08455	16948
252.09445	16895
252.10434	17012
252.11424	17189
252.12415	17222
252.13403	17170
252.14394	17108
252.15384	17049
252.16373	17040
252.17363	17016
252.18353	16896
252.19342	16902
252.20332	16990
252.21321	17046
252.22311	16949
252.23302	16952
252.2429	17021
252.25281	16994
252.2627	17041
252.2726	17094
252.28249	17090
252.29239	16992
252.30228	17035
252.31218	16974
252.32207	16985
252.33197	16962
252.34186	16967
252.35176	17108
252.36165	17254
252.37155	17297
252.38144	17219
252.39134	17181
252.40123	17153
252.41112	17245
252.42102	17315
252.43091	17287
252.44081	17531
252.4507	17641
252.46059	17602
252.47049	17618
252.48038	17658
252.49028	17587
252.50017	17629
252.51006	17667
252.51996	17775
252.52985	17741
252.53973	17675
252.54962	17684
252.55952	17712
252.56941	17724
252.5793	17562
252.58919	17615
252.59909	17607
252.60898	17640
252.61887	17651
252.62875	17678
252.63866	17722
252.64854	17728
252.65843	17759
252.66832	17867
252.67821	17953
252.68811	17896
252.698	17956
252.70789	17930
252.71777	17895
252.72766	17868
252.73755	17848
252.74744	17899
252.75734	17894
252.76723	17809
252.77711	17738
252.787	17737
252.79689	17842
252.80678	17859
252.81667	17890
252.82655	17761
252.83644	17777
252.84633	17774
252.85622	17782
252.8661	17881
252.87599	17992
252.88588	18061
252.89577	18019
252.90565	18123
252.91554	18076
252.92543	18077
252.93532	17942
252.94521	18076
252.95509	18115
252.96498	18091
252.97487	18092
252.98476	18041
252.99463	18002
253.00452	17968
253.0144	18020
253.02429	18103
253.03418	18314
253.04407	18320
253.05396	18394
253.06383	18340
253.07372	18335
253.0836	18436
253.09349	18424
253.10338	18552
253.11325	18681
253.12314	18685
253.13303	18680
253.14291	18687
253.15279	18761
253.16267	18675
253.17256	18740
253.18245	18734
253.19232	18807
253.20221	18752
253.2121	18717
253.22197	18688
253.23186	18742
253.24174	18809
253.25163	18622
253.26151	18563
253.27139	18617
253.28127	18656
253.29115	18655
253.30104	18669
253.31091	18673
253.3208	18598
253.33067	18735
253.34056	18889
253.35045	18950
253.36032	18979
253.37021	18982
253.38008	18951
253.38997	18960
253.39984	18902
253.40973	18819
253.4196	18909
253.42949	18979
253.43936	18846
253.44925	18816
253.45912	18854
253.46901	18904
253.47888	18921
253.48877	18903
253.49864	18983
253.50853	18928
253.5184	18870
253.52827	18874
253.53816	18938
253.54803	19080
253.55792	19093
253.56779	19115
253.57767	19183
253.58755	19276
253.59743	19152
253.6073	19072
253.61719	19127
253.62706	19112
253.63693	19189
253.64682	19247
253.65669	19293
253.66656	19239
253.67644	19206
253.68633	19303
253.6962	19444
253.70607	19448
253.71594	19457
253.72583	19432
253.7357	19514
253.74557	19403
253.75545	19408
253.76532	19538
253.77521	19646
253.78508	19783
253.79495	19778
253.80482	19732
253.8147	19672
253.82457	19873
253.83446	20025
253.84433	19944
253.8542	19937
253.86407	19933
253.87395	20001
253.88382	19938
253.89369	19949
253.90356	20026
253.91344	19947
253.92331	19877
253.93318	19805
253.94305	19873
253.95293	19985
253.9628	20039
253.97267	20071
253.98254	20005
253.99242	19931
254.00229	19961
254.01216	20117
254.02203	20176
254.03191	20220
254.04178	20263
254.05165	20221
254.06152	20251
254.0714	20168
254.08127	20151
254.09114	20122
254.10101	20223
254.11087	20084
254.12074	20065
254.13062	20262
254.14049	20270
254.15036	20343
254.16023	20360
254.17009	20415
254.17996	20359
254.18983	20195
254.19971	20070
254.20958	20031
254.21944	20055
254.22931	20044
254.23918	20191
254.24905	20283
254.25891	20417
254.26878	20333
254.27866	20209
254.28853	20250
254.29839	20231
254.30826	20321
254.31813	20431
254.32799	20574
254.33786	20658
254.34773	20635
254.35759	20682
254.36746	20765
254.37733	20928
254.38719	20966
254.39706	20916
254.40692	20942
254.41679	20923
254.42667	20922
254.43652	20724
254.4464	20640
254.45625	20790
254.46613	20866
254.47598	20775
254.48586	20867
254.49571	20977
254.50558	21059
254.51544	21000
254.52531	21092
254.53517	21151
254.54504	21253
254.5549	21258
254.56477	21311
254.57463	21420
254.5845	21374
254.59436	21253
254.60423	21209
254.61409	21153
254.62395	21160
254.63382	21259
254.64368	21320
254.65353	21377
254.66341	21333
254.67326	21342
254.68314	21454
254.69299	21424
254.70285	21412
254.71272	21508
254.72258	21573
254.73244	21563
254.74229	21615
254.75217	21495
254.76202	21475
254.77188	21411
254.78174	21532
254.79161	21560
254.80147	21721
254.81133	21811
254.82118	21745
254.83105	21492
254.84091	21431
254.85077	21410
254.86063	21466
254.87048	21446
254.88036	21491
254.89021	21601
254.90007	21581
254.90993	21528
254.91978	21583
254.92964	21609
254.9395	21637
254.94936	21670
254.95921	21610
254.96909	21681
254.97894	21725
254.9888	21613
254.99866	21587
255.00851	21443
255.01837	21413
255.02823	21435
255.03809	21573
255.04794	21703
255.0578	21731
255.06766	21704
255.07751	21681
255.08737	21644
255.09723	21699
255.10709	21822
255.11694	21981
255.1268	22131
255.13664	22111
255.1465	22089
255.15636	22125
255.16621	22119
255.17607	22175
255.18593	22184
255.19579	22200
255.20564	22212
255.21548	22096
255.22534	22089
255.2352	22089
255.24506	21985
255.25491	22055
255.26477	22028
255.27461	22072
255.28447	22020
255.29433	21925
255.30418	21931
255.31403	22010
255.32388	22082
255.33374	22186
255.3436	22231
255.35344	22272
255.3633	22352
255.37315	22329
255.383	22270
255.39285	22287
255.40271	22269
255.41255	22212
255.42241	22235
255.43227	22196
255.44211	22142
255.45197	22020
255.46182	21998
255.47166	21990
255.48152	22076
255.49136	21958
255.50122	21909
255.51108	21786
255.52092	21775
255.53078	21764
255.54062	21681
255.55048	21767
255.56032	21805
255.57018	22012
255.58002	22119
255.58987	22086
255.59972	22029
255.60957	21875
255.61942	21770
255.62927	21817
255.63911	21815
255.64897	21842
255.65881	21847
255.66866	21830
255.67851	21743
255.68835	21757
255.69821	21734
255.70805	21782
255.7179	21988
255.72775	22099
255.73759	22118
255.74744	22069
255.75729	22088
255.76714	22023
255.77698	22075
255.78683	22166
255.79668	22367
255.80652	22420
255.81638	22356
255.82622	22381
255.83606	22491
255.8459	22613
255.85576	22496
255.8656	22495
255.87544	22570
255.88528	22612
255.89514	22536
255.90498	22495
255.91483	22480
255.92467	22407
255.93451	22372
255.94435	22355
255.95421	22375
255.96405	22408
255.97389	22413
255.98373	22521
255.99358	22422
256.00342	22429
256.01328	22634
256.0231	22689
256.03296	22723
256.04279	22733
256.05264	22823
256.06247	22818
256.07233	22790
256.08215	22668
256.09201	22805
256.10184	22823
256.11169	22806
256.12152	22761
256.13138	22723
256.1412	22734
256.15106	22780
256.16089	22777
256.17075	22927
256.18057	23049
256.19043	22988
256.20026	22995
256.21011	22899
256.21994	23056
256.22977	23086
256.23962	23172
256.24945	23166
256.25931	23241
256.26913	23263
256.27899	23103
256.28882	23070
256.29865	23114
256.3085	23179
256.31833	23292
256.32819	23406
256.33801	23495
256.34784	23440
256.3577	23305
256.36752	23235
256.37738	23464
256.38721	23516
256.39703	23558
256.40689	23647
256.41672	23572
256.42654	23581
256.4364	23546
256.44623	23549
256.45605	23647
256.46591	23754
256.47574	23907
256.48557	23865
256.49542	23912
256.50525	24085
256.51508	24068
256.52493	24095
256.53476	24098
256.54459	24019
256.55441	23927
256.56427	23902
256.5741	23977
256.58392	24025
256.59378	24052
256.60361	23851
256.61343	23835
256.62326	23849
256.63312	23821
256.64294	24033
256.65277	24187
256.6626	24155
256.67245	24020
256.68228	24030
256.69211	24203
256.70193	24154
256.71176	24142
256.72162	24260
256.73145	24369
256.74127	24185
256.7511	24191
256.76093	24060
256.77078	24161
256.78061	24178
256.79044	24051
256.80026	24002
256.81009	24156
256.81992	24326
256.82977	24283
256.8396	24398
256.84943	24392
256.85925	24405
256.86908	24163
256.87891	24052
256.88873	23953
256.89859	23864
256.90842	23917
256.91824	24019
256.92807	24128
256.9379	24279
256.94772	24178
256.95755	24006
256.96738	24058
256.9772	23995
256.98703	24089
256.99686	24192
257.00671	24332
257.01654	24471
257.02637	24441
257.03619	24502
257.04602	24555
257.05585	24740
257.06567	24805
257.0755	24756
257.08533	24890
257.09515	24760
257.10498	24663
257.11481	24645
257.12463	24632
257.13446	24758
257.14429	24813
257.15411	24742
257.16394	24849
257.17377	24993
257.18359	25040
257.19342	24916
257.20325	24943
257.21307	25036
257.2229	25120
257.23273	25210
257.24255	25248
257.25238	25391
257.26221	25331
257.27203	25250
257.28186	25168
257.29169	25147
257.30148	25105
257.31131	25261
257.32114	25501
257.33096	25393
257.34079	25314
257.35062	25243
257.36044	25355
257.37027	25410
257.3801	25496
257.38992	25303
257.39972	25204
257.40955	25201
257.41937	25334
257.4292	25229
257.43903	25267
257.44885	25274
257.45868	25261
257.46848	25377
257.4783	25444
257.48813	25529
257.49796	25522
257.50778	25432
257.51761	25353
257.5274	25236
257.53723	25304
257.54706	25311
257.55688	25357
257.56671	25352
257.57651	25173
257.58633	25331
257.59616	25437
257.60599	25530
257.61581	25581
257.62561	25610
257.63544	25424
257.64526	25430
257.65509	25414
257.66489	25532
257.67471	25521
257.68454	25525
257.69437	25383
257.70416	25423
257.71399	25490
257.72382	25795
257.73361	25801
257.74344	25758
257.75327	25782
257.76309	25731
257.77289	25841
257.78271	25921
257.79254	25983
257.80234	26010
257.81216	25958
257.82199	25989
257.83179	25973
257.84161	26116
257.85144	26012
257.86124	25977
257.87106	25966
257.88089	26025
257.89069	26048
257.90051	26132
257.91034	26156
257.92014	26206
257.92996	26216
257.93976	26112
257.94958	26068
257.95941	25950
257.96921	25918
257.97903	25949
257.98883	25915
257.99866	25898
258.00848	25996
258.01828	26098
258.02811	26152
258.0379	26138
258.04773	26147
258.05753	26226
258.06735	26344
258.07718	26405
258.08698	26406
258.0968	26406
258.1066	26470
258.11642	26464
258.12622	26381
258.13605	26405
258.14584	26548
258.15567	26355
258.16547	26318
258.17529	26253
258.18509	26160
258.19492	26121
258.20471	26063
258.21454	26124
258.22433	26356
258.23416	26476
258.24396	26472
258.25378	26568
258.26358	26527
258.27338	26511
258.2832	26387
258.293	26440
258.30283	26491
258.31262	26487
258.32245	26545
258.33224	26510
258.34204	26328
258.35187	26229
258.36166	26181
258.37149	26575
258.38129	26696
258.39108	26700
258.40091	26638
258.41071	26630
258.42053	26498
258.43033	26345
258.44012	26458
258.44995	26564
258.45975	26836
258.46954	26965
258.47937	26866
258.48917	26668
258.49896	26862
258.50879	26995
258.51859	26993
258.52838	26972
258.53821	27001
258.548	26977
258.5578	26870
258.56763	26897
258.57742	26889
258.58722	26849
258.59705	26800
258.60684	26709
258.61664	26671
258.62643	26692
258.63626	26761
258.64606	26832
258.65585	26928
258.66565	26913
258.67548	26933
258.68527	27077
258.69507	27175
258.70486	27153
258.71469	27104
258.72449	27261
258.73428	27277
258.74408	27195
258.75391	27065
258.7637	27096
258.7735	27114
258.78329	27118
258.79309	26841
258.80292	26869
258.81271	27016
258.82251	26946
258.83231	27006
258.8421	27122
258.8519	27120
258.86172	27021
258.87152	26954
258.88132	26901
258.89111	27069
258.90091	27093
258.91071	27205
258.9205	27227
258.93033	27233
258.94012	27140
258.94992	27186
258.95972	27149
258.96951	27178
258.97931	27115
258.98911	27325
258.9989	27325
259.0087	27485
259.01849	27375
259.02832	27318
259.03812	27444
259.04791	27651
259.05771	27659
259.0675	27743
259.0773	27824
259.0871	27680
259.09689	27627
259.10669	27579
259.11649	27602
259.12628	27834
259.13608	28060
259.14587	28050
259.15567	28095
259.16547	28320
259.17526	28444
259.18506	28400
259.19485	28422
259.20465	28411
259.21445	28341
259.22424	28172
259.23404	28206
259.24384	28167
259.25363	28191
259.26343	28074
259.27322	27947
259.28302	27977
259.29282	28090
259.30261	28167
259.31241	28365
259.3222	28313
259.33197	28227
259.34177	28187
259.35156	28311
259.36136	28403
259.37115	28290
259.38095	28379
259.39075	28475
259.40054	28471
259.41034	28350
259.42014	28190
259.4299	28252
259.4397	28238
259.44949	28257
259.45929	28270
259.46909	28291
259.47888	28357
259.48868	28550
259.49844	28600
259.50824	28611
259.51804	28623
259.52783	28588
259.53763	28474
259.54739	28308
259.55719	28145
259.56699	28033
259.57678	28002
259.58658	28290
259.59634	28465
259.60614	28503
259.61594	28276
259.62573	28186
259.63553	28234
259.64529	28224
259.65509	28334
259.66489	28543
259.67468	28613
259.68445	28694
259.69424	28597
259.70404	28610
259.71384	28861
259.7236	28808
259.7334	28820
259.74319	28906
259.75296	28846
259.76276	28873
259.77255	28739
259.78235	28681
259.79211	28513
259.80191	28518
259.81171	28528
259.82147	28732
259.83127	28956
259.84106	28996
259.85083	29079
259.86063	28931
259.87042	28819
259.88019	28998
259.88998	29227
259.89978	29260
259.90955	29432
259.91934	29544
259.92911	29336
259.9389	29350
259.9487	29274
259.95847	29330
259.96826	29362
259.97803	29436
259.98782	29507
259.99762	29522
260.00739	29454
260.01718	29427
260.02695	29280
260.03674	29313
260.04651	29349
260.0563	29312
260.0661	29317
260.07587	29321
260.08566	29306
260.09543	29219
260.10522	29205
260.11499	29436
260.12479	29337
260.13455	29518
260.14435	29613
260.15411	29527
260.16391	29535
260.17368	29403
260.18347	29190
260.19324	29016
260.20303	28812
260.2128	28730
260.2226	28662
260.23236	28525
260.24216	28417
260.25192	28433
260.26172	28510
260.27148	28456
260.28125	28540
260.29105	28436
260.30081	28556
260.31061	28517
260.32037	28645
260.33017	28793
260.33994	29066
260.3497	29241
260.3595	29118
260.36926	29045
260.37906	28988
260.38882	29019
260.39859	29012
260.40839	29083
260.41815	29070
260.42792	29072
260.43771	28985
260.44748	28842
260.45728	28690
260.46704	28709
260.47681	28746
260.4866	28876
260.49637	29206
260.50613	29359
260.51593	29218
260.5257	29106
260.53546	29137
260.54523	29226
260.55502	29285
260.56479	29228
260.57455	29488
260.58435	29730
260.59412	29662
260.60388	29721
260.61368	29834
260.62344	29682
260.63321	29803
260.64297	29740
260.65277	29809
260.66254	29735
260.6723	29650
260.68207	29619
260.69186	29517
260.70163	29610
260.7114	29591
260.72116	29713
260.73093	29790
260.74072	29730
260.75049	29683
260.76025	29588
260.77002	29741
260.77979	29919
260.78958	29919
260.79935	29978
260.80911	30184
260.81888	30300
260.82864	30371
260.83841	30174
260.84821	30002
260.85797	29980
260.86774	29808
260.8775	29897
260.88727	30151
260.89703	30404
260.9068	30481
260.91656	30500
260.92636	30572
260.93613	30524
260.94589	30426
260.95566	30410
260.96542	30493
260.97519	30477
260.98495	30497
260.99472	30471
261.00449	30300
261.01425	30218
261.02402	30221
261.03378	30296
261.04355	30684
261.05334	30671
261.06311	30611
261.07288	30473
261.08264	30495
261.09241	30392
261.10217	30698
261.11194	30820
261.1217	31012
261.13147	31185
261.14124	31150
261.151	31204
261.16077	31169
261.17053	31183
261.1803	31161
261.19006	31212
261.19983	31258
261.20959	31251
261.21936	31161
261.22913	31264
261.23886	31320
261.24863	31306
261.25839	31244
261.26816	30977
261.27792	30987
261.28769	31045
261.29745	31201
261.30722	31245
261.31699	31232
261.32675	31159
261.33652	31276
261.34628	31477
261.35602	31556
261.36578	31487
261.37555	31491
261.38531	31589
261.39508	31633
261.40485	31618
261.41461	31585
261.42438	31589
261.43411	31584
261.44388	31438
261.45364	31231
261.46341	31362
261.47318	31372
261.48294	31309
261.49268	31222
261.50244	31311
261.51221	31052
261.52197	31048
261.53174	30888
261.54147	30921
261.55124	30908
261.561	30991
261.57077	31059
261.58051	30962
261.59027	30966
261.60004	30986
261.6098	30884
261.61957	30923
261.6293	30856
261.63907	30819
261.64883	30876
261.65857	30920
261.66833	30951
261.6781	30957
261.68787	30951
261.6976	31017
261.70737	31294
261.71713	31258
261.72687	31175
261.73663	31277
261.7464	31153
261.75616	30983
261.7659	31143
261.77567	31266
261.78543	31612
261.79517	31740
261.80493	31798
261.81467	31794
261.82443	32112
261.8342	32222
261.84393	32161
261.8537	32053
261.86346	32099
261.8732	31979
261.88297	32005
261.89273	32106
261.90247	32059
261.91223	32064
261.92197	32017
261.93173	31973
261.94147	32220
261.95123	32287
261.961	32107
261.97073	32140
261.9805	32159
261.99023	32000
262	31763
262.00974	32014
262.0195	32230
262.02924	32113
262.039	32168
262.04877	32315
262.0585	32289
262.06827	32216
262.078	32037
262.08777	32101
262.0975	32069
262.10727	31992
262.117	32041
262.12677	32143
262.13651	32266
262.14627	32431
262.15601	32422
262.16574	32553
262.17551	32506
262.18524	32400
262.19501	32187
262.20474	32086
262.21451	32024
262.22424	32044
262.23401	32079
262.24374	32291
262.25348	32405
262.26324	32336
262.27298	32179
262.28275	32099
262.29248	32138
262.30222	32284
262.31198	32350
262.32172	32558
262.33148	32838
262.34122	32735
262.35095	32647
262.36072	32854
262.37045	32986
262.38019	32932
262.38995	32906
262.39969	32999
262.40942	33114
262.41919	32976
262.42892	32849
262.43866	32840
262.44843	32830
262.45816	32809
262.4679	32711
262.47766	32916
262.4874	33087
262.49713	33217
262.5069	33225
262.51663	33078
262.52637	33065
262.5361	33216
262.54587	33424
262.5556	33481
262.56534	33621
262.57507	33668
262.58484	33587
262.59457	33519
262.60431	33475
262.61404	33418
262.62381	33372
262.63354	33597
262.64328	33539
262.65302	33456
262.66275	33407
262.67252	33578
262.68225	33524
262.69199	33606
262.70172	33516
262.71146	33451
262.72122	33531
262.73096	33369
262.74069	33275
262.75043	33086
262.76016	33080
262.7699	33136
262.77963	33240
262.7894	33365
262.79913	33607
262.80887	33563
262.8186	33590
262.82834	33552
262.83807	33351
262.84781	33418
262.85754	33170
262.86728	33100
