Date and Time:                Wed May 25 13:19:52.000 2022
Software Version:             4.31.30023.0
Temperature (C):              -40
Model:                        DU940P_BU2
Data Type:                    Counts
Acquisition Mode:             Single Scan
Trigger Mode:                 Internal
Exposure Time (secs):         0.55
Readout Mode:                 Full Vertical Binning
Horizontal binning:           1
Extended Dynamic Range:       off
Horizontally flipped:         false
Vertical Shift Speed (usecs): 14.51
Pixel Readout Rate (MHz):     3
Baseline Clamp:               ON
Clock Amplitude:              Normal
Output Amplifier:             High Capacity
Serial Number:                23634
Pre-Amplifier Gain:           1.000000
Spurious Noise Filter Mode:   No Filter
Photon counted:               false
Data Averaging Filter Mode:   No Filter
SR500i:
Serial Number:                
Wavelength (nm):              262
Grating Groove Density (l/mm):2400
Grating Blaze:                BH
Output Flipper Port:          Direct
Accessory Output Port 1:      Off
Accessory Output Port 2:      Off
Accessory Output Port 3:      Off
Accessory Input Port:         On



251.94595	17513
251.95586	16715
251.96576	16818
251.97566	16808
251.98557	16824
251.99545	16775
252.00536	16685
252.01526	16720
252.02516	16913
252.03505	16872
252.04495	16846
252.05486	16778
252.06476	16860
252.07465	16812
252.08455	16830
252.09445	16749
252.10434	16845
252.11424	17062
252.12415	17165
252.13403	17031
252.14394	16971
252.15384	16924
252.16373	16945
252.17363	16922
252.18353	16805
252.19342	16773
252.20332	16882
252.21321	16888
252.22311	16832
252.23302	16818
252.2429	16932
252.25281	16938
252.2627	16954
252.2726	16985
252.28249	16954
252.29239	16886
252.30228	16862
252.31218	16922
252.32207	16891
252.33197	16878
252.34186	16823
252.35176	17005
252.36165	17099
252.37155	17257
252.38144	17109
252.39134	17075
252.40123	17065
252.41112	17078
252.42102	17216
252.43091	17273
252.44081	17409
252.4507	17536
252.46059	17493
252.47049	17519
252.48038	17537
252.49028	17461
252.50017	17485
252.51006	17617
252.51996	17666
252.52985	17593
252.53973	17545
252.54962	17528
252.55952	17547
252.56941	17606
252.5793	17475
252.58919	17472
252.59909	17491
252.60898	17479
252.61887	17482
252.62875	17563
252.63866	17630
252.64854	17545
252.65843	17716
252.66832	17775
252.67821	17839
252.68811	17785
252.698	17777
252.70789	17812
252.71777	17756
252.72766	17766
252.73755	17736
252.74744	17748
252.75734	17746
252.76723	17681
252.77711	17612
252.787	17674
252.79689	17751
252.80678	17690
252.81667	17694
252.82655	17684
252.83644	17734
252.84633	17705
252.85622	17680
252.8661	17759
252.87599	17937
252.88588	17970
252.89577	17996
252.90565	18001
252.91554	17953
252.92543	17904
252.93532	17919
252.94521	17910
252.95509	17970
252.96498	18009
252.97487	17921
252.98476	17891
252.99463	17856
253.00452	17834
253.0144	17950
253.02429	18002
253.03418	18191
253.04407	18249
253.05396	18296
253.06383	18209
253.07372	18142
253.0836	18293
253.09349	18322
253.10338	18461
253.11325	18557
253.12314	18594
253.13303	18496
253.14291	18509
253.15279	18678
253.16267	18606
253.17256	18560
253.18245	18596
253.19232	18563
253.20221	18630
253.2121	18529
253.22197	18600
253.23186	18630
253.24174	18606
253.25163	18464
253.26151	18479
253.27139	18459
253.28127	18594
253.29115	18511
253.30104	18513
253.31091	18549
253.3208	18473
253.33067	18618
253.34056	18760
253.35045	18777
253.36032	18866
253.37021	18851
253.38008	18824
253.38997	18754
253.39984	18714
253.40973	18642
253.4196	18774
253.42949	18883
253.43936	18696
253.44925	18657
253.45912	18717
253.46901	18771
253.47888	18832
253.48877	18806
253.49864	18893
253.50853	18839
253.5184	18757
253.52827	18726
253.53816	18800
253.54803	18869
253.55792	18930
253.56779	19006
253.57767	19104
253.58755	19091
253.59743	18961
253.6073	18931
253.61719	18944
253.62706	19041
253.63693	19167
253.64682	19127
253.65669	19195
253.66656	19143
253.67644	19038
253.68633	19087
253.6962	19268
253.70607	19381
253.71594	19280
253.72583	19366
253.7357	19286
253.74557	19264
253.75545	19326
253.76532	19333
253.77521	19517
253.78508	19629
253.79495	19637
253.80482	19605
253.8147	19546
253.82457	19749
253.83446	19823
253.84433	19795
253.8542	19851
253.86407	19822
253.87395	19842
253.88382	19733
253.89369	19829
253.90356	19893
253.91344	19860
253.92331	19779
253.93318	19663
253.94305	19735
253.95293	19730
253.9628	19827
253.97267	20004
253.98254	19860
253.99242	19711
254.00229	19891
254.01216	19966
254.02203	20064
254.03191	20000
254.04178	20097
254.05165	20143
254.06152	20157
254.0714	20078
254.08127	20047
254.09114	19947
254.10101	20048
254.11087	19991
254.12074	19998
254.13062	20020
254.14049	20186
254.15036	20252
254.16023	20264
254.17009	20239
254.17996	20165
254.18983	20109
254.19971	19904
254.20958	19951
254.21944	19919
254.22931	19947
254.23918	20018
254.24905	20215
254.25891	20259
254.26878	20160
254.27866	20073
254.28853	20128
254.29839	20107
254.30826	20186
254.31813	20338
254.32799	20435
254.33786	20563
254.34773	20516
254.35759	20532
254.36746	20637
254.37733	20712
254.38719	20757
254.39706	20810
254.40692	20779
254.41679	20806
254.42667	20679
254.43652	20638
254.4464	20597
254.45625	20641
254.46613	20664
254.47598	20595
254.48586	20770
254.49571	20893
254.50558	20903
254.51544	20901
254.52531	20994
254.53517	20943
254.54504	21070
254.5549	21103
254.56477	21234
254.57463	21182
254.5845	21165
254.59436	21027
254.60423	21116
254.61409	20968
254.62395	21046
254.63382	21074
254.64368	21221
254.65353	21184
254.66341	21243
254.67326	21148
254.68314	21331
254.69299	21306
254.70285	21301
254.71272	21392
254.72258	21328
254.73244	21459
254.74229	21423
254.75217	21288
254.76202	21225
254.77188	21384
254.78174	21335
254.79161	21436
254.80147	21552
254.81133	21660
254.82118	21604
254.83105	21381
254.84091	21282
254.85077	21249
254.86063	21402
254.87048	21325
254.88036	21302
254.89021	21463
254.90007	21507
254.90993	21353
254.91978	21378
254.92964	21510
254.9395	21497
254.94936	21553
254.95921	21520
254.96909	21506
254.97894	21504
254.9888	21471
254.99866	21349
255.00851	21383
255.01837	21273
255.02823	21250
255.03809	21354
255.04794	21588
255.0578	21623
255.06766	21546
255.07751	21519
255.08737	21539
255.09723	21539
255.10709	21691
255.11694	21848
255.1268	22025
255.13664	22005
255.1465	21907
255.15636	21972
255.16621	21915
255.17607	21945
255.18593	21954
255.19579	22003
255.20564	22049
255.21548	21926
255.22534	21956
255.2352	21892
255.24506	21900
255.25491	21870
255.26477	21779
255.27461	21916
255.28447	21903
255.29433	21786
255.30418	21745
255.31403	21912
255.32388	21886
255.33374	22008
255.3436	22091
255.35344	22159
255.3633	22184
255.37315	22137
255.383	22166
255.39285	22076
255.40271	22075
255.41255	22077
255.42241	22087
255.43227	22031
255.44211	21967
255.45197	21941
255.46182	21714
255.47166	21901
255.48152	21836
255.49136	21787
255.50122	21684
255.51108	21698
255.52092	21652
255.53078	21620
255.54062	21510
255.55048	21641
255.56032	21744
255.57018	21903
255.58002	21848
255.58987	21915
255.59972	21827
255.60957	21751
255.61942	21576
255.62927	21622
255.63911	21652
255.64897	21651
255.65881	21745
255.66866	21522
255.67851	21604
255.68835	21575
255.69821	21592
255.70805	21741
255.7179	21877
255.72775	21990
255.73759	21959
255.74744	21913
255.75729	21879
255.76714	21891
255.77698	21924
255.78683	22046
255.79668	22240
255.80652	22343
255.81638	22206
255.82622	22240
255.83606	22366
255.8459	22461
255.85576	22348
255.8656	22353
255.87544	22350
255.88528	22398
255.89514	22363
255.90498	22270
255.91483	22303
255.92467	22273
255.93451	22270
255.94435	22301
255.95421	22117
255.96405	22242
255.97389	22338
255.98373	22324
255.99358	22284
256.00342	22264
256.01328	22441
256.0231	22575
256.03296	22595
256.04279	22584
256.05264	22628
256.06247	22647
256.07233	22607
256.08215	22536
256.09201	22579
256.10184	22669
256.11169	22655
256.12152	22553
256.13138	22599
256.1412	22589
256.15106	22545
256.16089	22656
256.17075	22736
256.18057	22830
256.19043	22884
256.20026	22868
256.21011	22762
256.21994	22792
256.22977	22948
256.23962	22996
256.24945	23068
256.25931	23012
256.26913	23127
256.27899	22916
256.28882	22886
256.29865	22964
256.3085	22960
256.31833	23046
256.32819	23224
256.33801	23235
256.34784	23282
256.3577	23055
256.36752	23091
256.37738	23280
256.38721	23398
256.39703	23386
256.40689	23378
256.41672	23391
256.42654	23436
256.4364	23373
256.44623	23445
256.45605	23471
256.46591	23627
256.47574	23796
256.48557	23662
256.49542	23709
256.50525	23871
256.51508	23937
256.52493	23945
256.53476	23876
256.54459	23849
256.55441	23711
256.56427	23756
256.5741	23839
256.58392	23934
256.59378	23833
256.60361	23713
256.61343	23629
256.62326	23677
256.63312	23693
256.64294	23798
256.65277	24041
256.6626	23938
256.67245	23936
256.68228	23750
256.69211	23989
256.70193	24030
256.71176	23995
256.72162	24081
256.73145	24124
256.74127	24081
256.7511	23997
256.76093	23944
256.77078	23955
256.78061	23981
256.79044	23912
256.80026	23956
256.81009	24012
256.81992	24135
256.82977	24198
256.8396	24208
256.84943	24229
256.85925	24225
256.86908	24025
256.87891	23834
256.88873	23812
256.89859	23709
256.90842	23740
256.91824	23813
256.92807	23915
256.9379	24162
256.94772	24043
256.95755	23982
256.96738	23880
256.9772	23777
256.98703	23853
256.99686	24015
257.00671	24196
257.01654	24325
257.02637	24319
257.03619	24271
257.04602	24390
257.05585	24475
257.06567	24566
257.0755	24544
257.08533	24601
257.09515	24584
257.10498	24469
257.11481	24425
257.12463	24481
257.13446	24530
257.14429	24617
257.15411	24645
257.16394	24692
257.17377	24871
257.18359	24900
257.19342	24809
257.20325	24827
257.21307	24864
257.2229	24976
257.23273	25019
257.24255	25154
257.25238	25240
257.26221	25242
257.27203	25056
257.28186	25063
257.29169	24936
257.30148	24910
257.31131	25073
257.32114	25232
257.33096	25281
257.34079	25172
257.35062	25162
257.36044	25187
257.37027	25285
257.3801	25264
257.38992	25143
257.39972	25109
257.40955	25104
257.41937	25152
257.4292	25105
257.43903	25104
257.44885	25142
257.45868	25181
257.46848	25132
257.4783	25213
257.48813	25383
257.49796	25358
257.50778	25202
257.51761	25145
257.5274	25127
257.53723	25042
257.54706	25057
257.55688	25137
257.56671	25120
257.57651	25079
257.58633	25062
257.59616	25173
257.60599	25343
257.61581	25410
257.62561	25337
257.63544	25304
257.64526	25136
257.65509	25244
257.66489	25260
257.67471	25399
257.68454	25295
257.69437	25296
257.70416	25196
257.71399	25317
257.72382	25561
257.73361	25640
257.74344	25659
257.75327	25557
257.76309	25549
257.77289	25601
257.78271	25673
257.79254	25742
257.80234	25930
257.81216	25803
257.82199	25759
257.83179	25967
257.84161	25829
257.85144	25810
257.86124	25735
257.87106	25840
257.88089	25895
257.89069	25923
257.90051	25948
257.91034	25943
257.92014	25976
257.92996	26011
257.93976	25988
257.94958	25837
257.95941	25816
257.96921	25703
257.97903	25742
257.98883	25695
257.99866	25671
258.00848	25826
258.01828	25894
258.02811	26115
258.0379	25999
258.04773	25911
258.05753	26087
258.06735	26113
258.07718	26236
258.08698	26223
258.0968	26244
258.1066	26261
258.11642	26151
258.12622	26189
258.13605	26182
258.14584	26313
258.15567	26255
258.16547	26124
258.17529	25982
258.18509	26015
258.19492	25858
258.20471	25830
258.21454	25944
258.22433	26115
258.23416	26296
258.24396	26469
258.25378	26338
258.26358	26311
258.27338	26316
258.2832	26259
258.293	26304
258.30283	26283
258.31262	26253
258.32245	26280
258.33224	26272
258.34204	26149
258.35187	26022
258.36166	25947
258.37149	26279
258.38129	26507
258.39108	26467
258.40091	26513
258.41071	26402
258.42053	26233
258.43033	26221
258.44012	26274
258.44995	26466
258.45975	26569
258.46954	26740
258.47937	26632
258.48917	26510
258.49896	26609
258.50879	26751
258.51859	26752
258.52838	26778
258.53821	26842
258.548	26779
258.5578	26707
258.56763	26620
258.57742	26733
258.58722	26721
258.59705	26608
258.60684	26495
258.61664	26429
258.62643	26484
258.63626	26571
258.64606	26623
258.65585	26741
258.66565	26655
258.67548	26665
258.68527	26843
258.69507	27033
258.70486	27023
258.71469	26911
258.72449	27042
258.73428	26989
258.74408	26952
258.75391	26827
258.7637	26943
258.7735	26934
258.78329	26967
258.79309	26658
258.80292	26704
258.81271	26809
258.82251	26794
258.83231	26783
258.8421	26993
258.8519	26983
258.86172	26804
258.87152	26744
258.88132	26733
258.89111	26876
258.90091	26937
258.91071	27040
258.9205	27068
258.93033	27041
258.94012	27017
258.94992	27016
258.95972	26911
258.96951	26977
258.97931	26920
258.98911	27099
258.9989	27201
259.0087	27286
259.01849	27223
259.02832	27145
259.03812	27262
259.04791	27494
259.05771	27531
259.0675	27508
259.0773	27602
259.0871	27541
259.09689	27457
259.10669	27361
259.11649	27417
259.12628	27630
259.13608	27927
259.14587	27830
259.15567	27858
259.16547	28099
259.17526	28233
259.18506	28259
259.19485	28161
259.20465	28152
259.21445	28168
259.22424	27957
259.23404	28050
259.24384	28004
259.25363	28038
259.26343	27946
259.27322	27631
259.28302	27774
259.29282	27891
259.30261	27900
259.31241	28095
259.3222	28171
259.33197	28100
259.34177	28053
259.35156	28056
259.36136	28164
259.37115	28138
259.38095	28215
259.39075	28307
259.40054	28244
259.41034	28132
259.42014	28061
259.4299	27963
259.4397	28103
259.44949	28071
259.45929	28022
259.46909	28087
259.47888	28216
259.48868	28286
259.49844	28476
259.50824	28416
259.51804	28452
259.52783	28383
259.53763	28238
259.54739	28120
259.55719	28017
259.56699	27813
259.57678	27842
259.58658	28056
259.59634	28334
259.60614	28383
259.61594	28126
259.62573	27916
259.63553	27967
259.64529	27989
259.65509	28069
259.66489	28300
259.67468	28536
259.68445	28525
259.69424	28493
259.70404	28412
259.71384	28582
259.7236	28657
259.7334	28626
259.74319	28640
259.75296	28646
259.76276	28676
259.77255	28659
259.78235	28489
259.79211	28292
259.80191	28287
259.81171	28306
259.82147	28509
259.83127	28772
259.84106	28822
259.85083	28801
259.86063	28733
259.87042	28628
259.88019	28808
259.88998	28981
259.89978	29022
259.90955	29140
259.91934	29325
259.92911	29239
259.9389	29110
259.9487	29187
259.95847	29049
259.96826	29146
259.97803	29232
259.98782	29383
259.99762	29348
260.00739	29205
260.01718	29288
260.02695	29166
260.03674	29113
260.04651	29154
260.0563	29113
260.0661	29213
260.07587	29166
260.08566	29088
260.09543	29024
260.10522	29027
260.11499	29235
260.12479	29158
260.13455	29313
260.14435	29376
260.15411	29351
260.16391	29340
260.17368	29241
260.18347	29033
260.19324	28794
260.20303	28542
260.2128	28494
260.2226	28541
260.23236	28355
260.24216	28129
260.25192	28286
260.26172	28306
260.27148	28342
260.28125	28368
260.29105	28245
260.30081	28302
260.31061	28285
260.32037	28364
260.33017	28659
260.33994	28885
260.3497	29049
260.3595	28902
260.36926	28701
260.37906	28792
260.38882	28756
260.39859	28841
260.40839	28800
260.41815	28872
260.42792	28831
260.43771	28685
260.44748	28602
260.45728	28513
260.46704	28486
260.47681	28573
260.4866	28703
260.49637	28995
260.50613	29145
260.51593	29062
260.5257	28963
260.53546	28972
260.54523	29062
260.55502	29098
260.56479	29054
260.57455	29310
260.58435	29610
260.59412	29401
260.60388	29400
260.61368	29508
260.62344	29447
260.63321	29510
260.64297	29489
260.65277	29565
260.66254	29574
260.6723	29391
260.68207	29367
260.69186	29380
260.70163	29334
260.7114	29403
260.72116	29494
260.73093	29565
260.74072	29540
260.75049	29397
260.76025	29358
260.77002	29574
260.77979	29660
260.78958	29703
260.79935	29744
260.80911	29977
260.81888	30096
260.82864	30109
260.83841	29987
260.84821	29827
260.85797	29757
260.86774	29587
260.8775	29685
260.88727	29920
260.89703	30116
260.9068	30214
260.91656	30262
260.92636	30377
260.93613	30278
260.94589	30185
260.95566	30224
260.96542	30108
260.97519	30388
260.98495	30209
260.99472	30248
261.00449	30157
261.01425	30040
261.02402	29921
261.03378	30088
261.04355	30485
261.05334	30485
261.06311	30408
261.07288	30364
261.08264	30260
261.09241	30366
261.10217	30541
261.11194	30563
261.1217	30729
261.13147	30899
261.14124	30843
261.151	30888
261.16077	30920
261.17053	30997
261.1803	30932
261.19006	30968
261.19983	31073
261.20959	31142
261.21936	30935
261.22913	31114
261.23886	31036
261.24863	31111
261.25839	30931
261.26816	30653
261.27792	30817
261.28769	30856
261.29745	30992
261.30722	31068
261.31699	31051
261.32675	30925
261.33652	31027
261.34628	31273
261.35602	31334
261.36578	31289
261.37555	31286
261.38531	31379
261.39508	31393
261.40485	31426
261.41461	31426
261.42438	31347
261.43411	31401
261.44388	31164
261.45364	30988
261.46341	31033
261.47318	31082
261.48294	31130
261.49268	31022
261.50244	31059
261.51221	30896
261.52197	30792
261.53174	30681
261.54147	30625
261.55124	30833
261.561	30815
261.57077	30860
261.58051	30768
261.59027	30828
261.60004	30725
261.6098	30667
261.61957	30675
261.6293	30650
261.63907	30636
261.64883	30613
261.65857	30784
261.66833	30777
261.6781	30736
261.68787	30635
261.6976	30871
261.70737	31026
261.71713	31007
261.72687	31033
261.73663	31029
261.7464	30895
261.75616	30828
261.7659	30805
261.77567	31052
261.78543	31370
261.79517	31518
261.80493	31504
261.81467	31597
261.82443	31838
261.8342	32040
261.84393	31985
261.8537	31857
261.86346	31917
261.8732	31786
261.88297	31791
261.89273	31938
261.90247	31891
261.91223	31782
261.92197	31746
261.93173	31791
261.94147	31977
261.95123	31997
261.961	31907
261.97073	31941
261.9805	31904
261.99023	31670
262	31620
262.00974	31758
262.0195	32001
262.02924	31879
262.039	31969
262.04877	32014
262.0585	32035
262.06827	32003
262.078	31860
262.08777	31856
262.0975	31941
262.10727	31768
262.117	31869
262.12677	31891
262.13651	32104
262.14627	32098
262.15601	32182
262.16574	32317
262.17551	32320
262.18524	32205
262.19501	31944
262.20474	31850
262.21451	31912
262.22424	31836
262.23401	31797
262.24374	32045
262.25348	32253
262.26324	32113
262.27298	31946
262.28275	31912
262.29248	31931
262.30222	31938
262.31198	32122
262.32172	32348
262.33148	32554
262.34122	32447
262.35095	32382
262.36072	32619
262.37045	32713
262.38019	32690
262.38995	32659
262.39969	32672
262.40942	32861
262.41919	32677
262.42892	32508
262.43866	32550
262.44843	32514
262.45816	32569
262.4679	32506
262.47766	32645
262.4874	32810
262.49713	33059
262.5069	32879
262.51663	32820
262.52637	32818
262.5361	33079
262.54587	33129
262.5556	33288
262.56534	33348
262.57507	33486
262.58484	33456
262.59457	33258
262.60431	33247
262.61404	33196
262.62381	33181
262.63354	33352
262.64328	33385
262.65302	33196
262.66275	33130
262.67252	33267
262.68225	33251
262.69199	33351
262.70172	33268
262.71146	33147
262.72122	33257
262.73096	33176
262.74069	33065
262.75043	32881
262.76016	32721
262.7699	33012
262.77963	33007
262.7894	33095
262.79913	33439
262.80887	33338
262.8186	33325
262.82834	33286
262.83807	33111
262.84781	33252
262.85754	33011
262.86728	32790
