Date and Time:                Mon Oct 10 15:34:21.000 2022
Software Version:             4.31.30023.0
Temperature (C):              -40
Model:                        DU940P_BU2
Data Type:                    Counts
Acquisition Mode:             Single Scan
Trigger Mode:                 Internal
Exposure Time (secs):         100
Readout Mode:                 Full Vertical Binning
Horizontal binning:           1
Extended Dynamic Range:       off
Horizontally flipped:         false
Vertical Shift Speed (usecs): 14.51
Pixel Readout Rate (MHz):     3
Baseline Clamp:               ON
Clock Amplitude:              Normal
Output Amplifier:             High Capacity
Serial Number:                23634
Pre-Amplifier Gain:           1.000000
Spurious Noise Filter Mode:   No Filter
Photon counted:               false
Data Averaging Filter Mode:   No Filter
SR500i:
Serial Number:                
Wavelength (nm):              235
Grating Groove Density (l/mm):1199.47
Grating Blaze:                500
Output Flipper Port:          Direct
Accessory Output Port 1:      Off
Accessory Output Port 2:      Off
Accessory Output Port 3:      Off
Accessory Input Port:         On



213.13235	50354
213.15382	49949
213.17529	50444
213.19676	50759
213.21823	51012
213.23969	51236
213.26115	51400
213.28262	51563
213.30409	51695
213.32556	51821
213.34703	51933
213.36848	52036
213.38995	52132
213.41142	52202
213.43289	52292
213.45435	52368
213.47581	52415
213.49728	52462
213.51874	52530
213.54021	52587
213.56168	52636
213.58315	52683
213.6046	52738
213.62607	52778
213.64752	52808
213.66899	52847
213.69046	52867
213.71191	52921
213.73338	52944
213.75485	52950
213.77631	52992
213.79778	53019
213.81923	53033
213.8407	53065
213.86215	53092
213.88362	53107
213.90508	53117
213.92654	53142
213.948	53162
213.96947	53202
213.99092	53215
214.01239	53232
214.03384	53254
214.05531	53268
214.07677	53279
214.09824	53305
214.11969	53310
214.14114	53328
214.16261	53337
214.18407	53348
214.20552	53366
214.22699	53371
214.24844	53385
214.2699	53396
214.29137	53415
214.31282	53413
214.33427	53425
214.35574	53426
214.3772	53444
214.39865	53452
214.4201	53461
214.44157	53466
214.46303	53481
214.48448	53496
214.50594	53497
214.5274	53493
214.54886	53512
214.57031	53514
214.59177	53523
214.61322	53533
214.63467	53541
214.65614	53536
214.6776	53546
214.69905	53561
214.7205	53562
214.74196	53577
214.76341	53571
214.78487	53583
214.80632	53575
214.82777	53578
214.84923	53593
214.87068	53581
214.89214	53588
214.91359	53619
214.93504	53585
214.9565	53615
214.97795	53594
214.9994	53631
215.02086	53598
215.04231	53632
215.06377	53630
215.08522	53607
215.10667	53657
215.12813	53629
215.14958	53639
215.17104	53629
215.19247	53630
215.21393	53638
215.23538	53651
215.25684	53638
215.27829	53652
215.29974	53651
215.32118	53656
215.34264	53655
215.36409	53664
215.38554	53652
215.40698	53668
215.42844	53668
215.44989	53663
215.47134	53658
215.49278	53673
215.51424	53675
215.53569	53667
215.55713	53667
215.57858	53662
215.60004	53676
215.62148	53665
215.64293	53677
215.66438	53671
215.68582	53660
215.70728	53667
215.72871	53650
215.75017	53644
215.77161	53650
215.79306	53657
215.81451	53639
215.83595	53641
215.85741	53663
215.87885	53624
215.9003	53640
215.92174	53633
215.94319	53612
215.96463	53616
215.98608	53612
216.00752	53593
216.02896	53597
216.05042	53581
216.07185	53580
216.09331	53562
216.11475	53540
216.13618	53546
216.15764	53527
216.17908	53520
216.20052	53512
216.22197	53497
216.24341	53494
216.26485	53462
216.2863	53466
216.30774	53445
216.32918	53412
216.35063	53409
216.37207	53373
216.39351	53355
216.41495	53358
216.43639	53324
216.45784	53291
216.47928	53282
216.50072	53258
216.52216	53212
216.54359	53193
216.56505	53169
216.58649	53129
216.60793	53112
216.62936	53062
216.6508	53044
216.67224	53001
216.69368	52940
216.71512	52896
216.73656	52847
216.758	52783
216.77943	52713
216.80089	52604
216.82233	52499
216.84377	52407
216.8652	52301
216.88664	52163
216.90808	51952
216.9295	51742
216.95094	51450
216.97238	50992
216.99382	50291
217.01526	48998
217.0367	48348
217.05814	48153
217.07957	47952
217.10101	47840
217.12245	47778
217.14388	47613
217.16531	47456
217.18675	47256
217.20819	47109
217.22963	46822
217.25107	46592
217.27249	46265
217.29393	46124
217.31537	45862
217.33681	45949
217.35823	46154
217.37967	45961
217.40111	45989
217.42255	45943
217.44397	45908
217.46541	45828
217.48685	45745
217.50827	45030
217.52971	45320
217.55115	44849
217.57257	44620
217.59401	44246
217.61543	44465
217.63687	44296
217.65831	44073
217.67973	43835
217.70117	43847
217.7226	43527
217.74403	43426
217.76546	43426
217.7869	43504
217.80832	43699
217.82976	43999
217.85118	43861
217.87262	43315
217.89404	43675
217.91548	43348
217.9369	42736
217.95833	42708
217.97977	42466
218.00119	42354
218.02263	42398
218.04405	42066
218.06548	41901
218.08691	41747
218.10834	41496
218.12976	41686
218.1512	41728
218.17262	41733
218.19405	41907
218.21548	41295
218.23691	41443
218.25833	40785
218.27975	41007
218.30119	41043
218.32262	41212
218.34404	41333
218.36546	40943
218.38689	40865
218.40833	40834
218.42975	40823
218.45117	40513
218.4726	40254
218.49402	40297
218.51544	39889
218.53688	39655
218.5583	39389
218.57973	39215
218.60115	39344
218.62257	38853
218.644	38457
218.66542	38333
218.68684	37990
218.70827	37930
218.72969	37942
218.75111	37991
218.77254	37807
218.79396	38048
218.81538	38122
218.83681	38027
218.85823	38123
218.87965	37780
218.90108	37600
218.9225	37402
218.94391	37115
218.96533	36763
218.98676	36733
219.00818	36409
219.0296	36454
219.05103	35949
219.07245	35888
219.09386	35787
219.11528	35778
219.1367	35548
219.15813	35152
219.17955	34973
219.20096	34868
219.22238	34733
219.2438	34740
219.26523	34809
219.28664	34859
219.30806	34752
219.32948	34506
219.35089	34308
219.37231	34184
219.39374	34031
219.41515	34048
219.43657	33892
219.45798	33960
219.4794	33640
219.50082	33577
219.52223	33336
219.54366	33307
219.56506	33125
219.58649	33035
219.60789	33374
219.62932	33351
219.65074	33044
219.67215	32789
219.69357	32461
219.71498	32426
219.73639	32326
219.75781	32380
219.77922	32377
219.80064	32363
219.82205	32248
219.84348	31949
219.86488	31775
219.88629	31824
219.90771	31884
219.92912	31687
219.95053	31487
219.97195	31274
219.99336	31212
220.01477	31078
220.03619	30909
220.0576	31021
220.07901	30884
220.10043	30866
220.12184	30882
220.14325	30789
220.16466	30690
220.18608	30552
220.20749	30527
220.2289	30435
220.25031	30504
220.27171	30313
220.29314	30435
220.31454	30290
220.33595	30252
220.35736	30295
220.37877	30409
220.40018	30179
220.42159	29986
220.44299	29756
220.4644	29759
220.48581	29769
220.50723	29755
220.52864	29795
220.55005	29812
220.57146	29666
220.59286	29434
220.61427	29259
220.63568	29194
220.65709	29143
220.67848	29153
220.69989	29165
220.7213	29315
220.74271	29405
220.76411	29181
220.78552	29251
220.80693	29319
220.82834	29227
220.84975	29310
220.87115	29309
220.89255	29229
220.91396	29164
220.93536	28953
220.95677	28878
220.97818	28874
220.99957	28805
221.02098	28917
221.04239	28868
221.0638	29052
221.08519	29101
221.1066	28956
221.12801	28742
221.1494	28677
221.17081	28486
221.19221	28382
221.21361	28301
221.23502	28409
221.25642	28431
221.27782	28101
221.29922	27970
221.32063	27891
221.34203	27712
221.36343	27676
221.38483	27775
221.40623	27905
221.42763	27653
221.44904	27484
221.47043	27345
221.49184	27332
221.51323	27293
221.53464	27320
221.55603	27246
221.57744	27300
221.59883	27138
221.62024	27003
221.64163	26794
221.66304	26745
221.68443	26796
221.70583	26719
221.72723	26809
221.74863	26897
221.77002	26948
221.79143	26748
221.81282	26604
221.83421	26492
221.85562	26304
221.87701	26046
221.89841	25896
221.9198	25803
221.94121	25720
221.9626	25654
221.98399	25753
222.00539	25773
222.02679	25548
222.04819	25470
222.06958	25382
222.09097	25353
222.11237	25169
222.13376	25184
222.15517	25365
222.17656	25510
222.19795	25486
222.21935	25298
222.24074	25274
222.26213	25186
222.28352	25177
222.30492	24956
222.32631	25020
222.3477	24881
222.36909	24814
222.39049	24677
222.41188	24656
222.43327	24653
222.45467	24585
222.47606	24530
222.49745	24524
222.51884	24635
222.54024	24731
222.56163	24565
222.58302	24338
222.60442	24251
222.62581	24340
222.64719	24387
222.66858	24479
222.68997	24511
222.71136	24640
222.73276	24501
222.75414	24398
222.77553	24295
222.79692	24122
222.81831	24113
222.83971	24072
222.86108	24184
222.88248	23919
222.90387	23815
222.92525	23578
222.94664	23606
222.96803	23716
222.98941	23590
223.0108	23318
223.0322	23308
223.05357	23147
223.07497	23144
223.09636	23118
223.11774	22867
223.13913	22887
223.16051	22903
223.1819	23063
223.20328	23120
223.22467	23033
223.24605	22919
223.26744	22822
223.28882	22752
223.31021	22578
223.33159	22400
223.35298	22398
223.37436	22296
223.39575	22248
223.41713	22041
223.43852	22067
223.4599	22107
223.48128	22006
223.50267	21885
223.52405	21852
223.54543	21769
223.56682	22067
223.5882	21580
223.60957	21683
223.63097	21764
223.65234	21854
223.67372	21719
223.69511	21681
223.71649	21733
223.73787	21617
223.75925	21422
223.78064	21501
223.80202	21387
223.82339	21332
223.84477	21415
223.86615	21204
223.88753	21155
223.90892	21059
223.9303	20966
223.95168	21110
223.97305	21225
223.99443	21301
224.01581	21176
224.03719	21077
224.05856	20987
224.07994	20909
224.10132	20957
224.1227	21109
224.14407	21192
224.16545	21224
224.18683	21154
224.20821	21084
224.22958	20968
224.25096	20930
224.27234	20819
224.29372	20752
224.31509	20823
224.33647	20693
224.35785	20607
224.37923	20556
224.40059	20442
224.42197	20451
224.44334	20320
224.46472	20073
224.4861	20064
224.50748	20029
224.52884	20013
224.55022	19995
224.57159	19957
224.59297	19919
224.61433	19882
224.63571	19996
224.65709	20045
224.67845	19972
224.69983	19889
224.72121	19981
224.74258	19852
224.76395	19728
224.78532	19626
224.80669	19620
224.82806	19622
224.84944	19318
224.8708	19163
224.89218	19155
224.91354	19101
224.93492	19169
224.95628	19122
224.97766	19107
224.99904	19093
225.0204	18934
225.04176	18773
225.06314	18786
225.0845	18824
225.10588	18753
225.12724	18818
225.14862	18737
225.16998	18750
225.19136	18606
225.21272	18412
225.23409	18449
225.25546	18403
225.27682	18342
225.29819	18366
225.31956	18422
225.34093	18352
225.36229	18206
225.38367	18144
225.40503	18211
225.42639	18246
225.44775	18324
225.46913	18273
225.49049	18164
225.51186	18084
225.53322	18043
225.5546	18056
225.57596	18035
225.59732	18027
225.61868	18019
225.64005	17981
225.66141	18017
225.68277	17939
225.70415	17958
225.72551	17960
225.74687	18043
225.76823	17906
225.7896	17828
225.81096	17819
225.83232	17835
225.85368	17843
225.87505	17848
225.89641	17731
225.91777	17623
225.93913	17544
225.96049	17582
225.98186	17580
226.00322	17619
226.02458	17678
226.04593	17571
226.06729	17576
226.08865	17527
226.11002	17496
226.13138	17420
226.15274	17436
226.1741	17475
226.19545	17470
226.21681	17460
226.23817	17327
226.25954	17328
226.2809	17452
226.30225	17366
226.32361	17293
226.34497	17397
226.36633	17323
226.38768	17278
226.40904	17168
226.4304	16977
226.45175	16908
226.47311	16855
226.49448	16820
226.51582	16950
226.53719	16818
226.55853	16808
226.5799	16783
226.60126	16729
226.6226	16797
226.64397	16849
226.66531	16789
226.68668	16801
226.70802	16726
226.72939	16744
226.75073	16609
226.77209	16623
226.79344	16606
226.8148	16655
226.83615	16543
226.8575	16653
226.87886	16738
226.90021	16792
226.92157	16683
226.94292	16595
226.96426	16603
226.98563	16605
227.00697	16586
227.02832	16541
227.04968	16588
227.07103	16576
227.09238	16594
227.11374	16544
227.13509	16452
227.15643	16411
227.17778	16290
227.19914	16299
227.22049	16385
227.24184	16297
227.26318	16150
227.28453	16207
227.30588	16239
227.32724	16222
227.34859	16166
227.36993	16045
227.39128	16044
227.41263	15956
227.43398	15894
227.45532	15846
227.47667	15764
227.49802	15849
227.51936	15870
227.54071	15872
227.56206	15983
227.5834	15920
227.60475	15903
227.6261	15909
227.64745	15773
227.66879	15803
227.69014	15710
227.71149	15672
227.73283	15614
227.75418	15594
227.77553	15502
227.79688	15534
227.81821	15507
227.83955	15436
227.8609	15369
227.88225	15312
227.90359	15337
227.92494	15327
227.94627	15347
227.96762	15512
227.98897	15639
228.01031	15653
228.03165	15547
228.05299	15540
228.07434	15535
228.09567	15454
228.11702	15395
228.13837	15446
228.1597	15486
228.18105	15368
228.20239	15401
228.22372	15354
228.24507	15343
228.2664	15363
228.28775	15383
228.3091	15435
228.33043	15531
228.35178	15605
228.37311	15535
228.39445	15462
228.41579	15424
228.43713	15449
228.45847	15598
228.47981	15593
228.50114	15769
228.52248	15758
228.54382	15659
228.56516	15653
228.5865	15611
228.60783	15644
228.62917	15640
228.65051	15651
228.67184	15671
228.69318	15613
228.71452	15546
228.73586	15552
228.75719	15587
228.77853	15509
228.79987	15383
228.8212	15397
228.84253	15427
228.86388	15411
228.88521	15443
228.90654	15506
228.92787	15520
228.9492	15602
228.97054	15655
228.99188	15783
229.01321	15770
229.03455	15793
229.05588	15898
229.07721	15814
229.09854	15811
229.11987	15741
229.1412	15683
229.16254	15795
229.18387	15819
229.2052	15628
229.22653	15594
229.24786	15651
229.2692	15703
229.29053	15662
229.31186	15560
229.33319	15699
229.35452	15543
229.37585	15529
229.39719	15548
229.41852	15612
229.43985	15749
229.46117	15699
229.4825	15662
229.50383	15604
229.52516	15528
229.54649	15337
229.56783	15259
229.58914	15288
229.61047	15155
229.63181	15125
229.65314	15060
229.67445	14960
229.69579	14844
229.71712	14704
229.73843	14773
229.75977	14734
229.7811	14770
229.80241	14651
229.82375	14537
229.84508	14412
229.86639	14282
229.88773	14256
229.90906	14265
229.93037	14305
229.95171	14382
229.97302	14266
229.99435	14195
230.01567	14095
230.037	14071
230.05832	14032
230.07965	13888
230.10097	13834
230.1223	13746
230.14362	13618
230.16495	13576
230.18626	13512
230.20758	13529
230.22891	13409
230.25023	13209
230.27155	13137
230.29288	13086
230.31419	13069
230.33551	13041
230.35684	13077
230.37816	13022
230.39948	12934
230.42081	12951
230.44212	12991
230.46344	12928
230.48476	12777
230.50609	12819
230.5274	12769
230.54872	12699
230.57004	12595
230.59135	12548
230.61267	12587
230.634	12533
230.65532	12348
230.67664	12250
230.69795	12347
230.71927	12351
230.74059	12310
230.7619	12238
230.78322	12344
230.80453	12198
230.82585	12108
230.84717	11977
230.86848	11936
230.8898	11895
230.91112	11876
230.93243	11947
230.95375	11985
230.97507	11961
230.99638	11812
231.0177	11791
231.03902	11793
231.06033	11761
231.08163	11698
231.10295	11757
231.12427	11777
231.14558	11783
231.1669	11721
231.18822	11713
231.20952	11758
231.23083	11737
231.25215	11745
231.27347	11707
231.29477	11715
231.31609	11734
231.3374	11659
231.3587	11586
231.38002	11508
231.40134	11496
231.42264	11501
231.44395	11416
231.46527	11506
231.48657	11476
231.50789	11481
231.52919	11475
231.55051	11453
231.57182	11424
231.59312	11408
231.61444	11356
231.63574	11336
231.65706	11305
231.67836	11263
231.69968	11248
231.72098	11169
231.74228	11117
231.7636	11139
231.7849	11147
231.80621	11158
231.82751	11178
231.84883	11167
231.87013	11128
231.89143	11061
231.91275	11093
231.93405	11072
231.95535	11119
231.97667	11055
231.99797	11044
232.01927	10959
232.04057	10915
232.06189	10852
232.08319	10877
232.10449	10861
232.12579	10853
232.14709	10842
232.16841	10858
232.18971	10810
232.21101	10712
232.23232	10534
232.25362	10501
232.27492	10406
232.29622	10383
232.31752	10430
232.33884	10445
232.36014	10293
232.38144	10261
232.40274	10298
232.42404	10342
232.44534	10264
232.46664	10244
232.48795	10294
232.50925	10269
232.53055	10219
232.55185	10163
232.57314	10157
232.59444	10142
232.61574	10046
232.63704	10025
232.65834	10100
232.67964	10172
232.70094	10196
232.72224	10071
232.74353	10043
232.76483	10039
232.78613	10041
232.80743	10033
232.82872	10050
232.85002	10135
232.87132	10067
232.89262	10118
232.91391	10042
232.93521	10022
232.95651	9943
232.9778	9995
232.9991	9993
233.0204	9936
233.04169	9913
233.06299	9865
233.08429	9891
233.10558	9849
233.12688	9866
233.14816	9869
233.16946	9798
233.19075	9710
233.21205	9674
233.23334	9616
233.25464	9666
233.27592	9612
233.29723	9605
233.31851	9659
233.33981	9625
233.3611	9688
233.3824	9630
233.40369	9661
233.42497	9621
233.44627	9562
233.46756	9466
233.48885	9461
233.51015	9550
233.53143	9378
233.55272	9368
233.57402	9369
233.59531	9387
233.61659	9375
233.63788	9377
233.65918	9294
233.68047	9316
233.70175	9264
233.72304	9259
233.74432	9332
233.76563	9471
233.78691	9493
233.8082	9481
233.82948	9452
233.85077	9377
233.87206	9330
233.89334	9326
233.91463	9238
233.93591	9279
233.9572	9264
233.97849	9251
233.99977	9160
234.02106	9125
234.04234	9036
234.06363	8992
234.08492	9076
234.1062	9101
234.12749	9128
234.14877	9119
234.17006	9032
234.19135	8962
234.21263	8902
234.23392	8916
234.2552	8958
234.27647	9024
234.29776	9102
234.31905	9122
234.34033	9130
234.36162	9119
234.38289	9143
234.40417	9095
234.42546	9133
234.44675	9127
234.46802	9059
234.4893	9031
234.51059	8958
234.53186	8927
234.55315	8849
234.57443	8823
234.5957	8810
234.61699	8827
234.63828	8856
234.65955	8853
234.68083	8807
234.7021	8765
234.72339	8778
234.74466	8811
234.76595	8843
234.78722	8907
234.8085	8837
234.82977	8859
234.85106	8870
234.87233	8919
234.89362	8808
234.91489	8692
234.93616	8679
234.95744	8742
234.97871	8661
235	8654
235.02127	8602
235.04254	8693
235.06383	8727
235.0851	8782
235.10637	8775
235.12766	8699
235.14893	8759
235.1702	8695
235.19147	8691
235.21275	8687
235.23402	8675
235.25529	8668
235.27657	8685
235.29784	8686
235.31911	8612
235.34039	8589
235.36166	8548
235.38293	8541
235.40421	8517
235.42548	8551
235.44675	8488
235.46802	8482
235.48929	8474
235.51056	8417
235.53183	8486
235.5531	8489
235.57437	8408
235.59564	8456
235.61691	8433
235.63818	8406
235.65945	8339
235.68073	8392
235.702	8408
235.72327	8401
235.74454	8461
235.76581	8416
235.78706	8414
235.80833	8366
235.82961	8305
235.85088	8370
235.87215	8378
235.89342	8380
235.91467	8274
235.93594	8264
235.95721	8277
235.97849	8282
235.99974	8271
236.02101	8175
236.04228	8132
236.06354	8159
236.08481	8173
236.10608	8203
236.12733	8249
236.14861	8159
236.16986	8167
236.19113	8195
236.2124	8160
236.23366	8128
236.25493	8173
236.27618	8104
236.29745	8126
236.31871	8073
236.33998	8046
236.36124	8045
236.38251	8045
236.40376	8023
236.42503	7981
236.44629	7970
236.46754	7971
236.48882	7981
236.51007	7920
236.53134	7895
236.5526	7849
236.57385	7841
236.59512	7808
236.61638	7716
236.63763	7657
236.65889	7628
236.68016	7593
236.70142	7617
236.72267	7649
236.74393	7658
236.7652	7811
236.78645	7785
236.80771	7553
236.82896	7596
236.85022	7543
236.87148	7513
236.89275	7598
236.914	7579
236.93526	7598
236.95651	7507
236.97777	7570
236.99902	7562
237.02028	7618
237.04153	7584
237.06279	7571
237.08405	7554
237.1053	7486
