Date and Time:                Sat Jan 28 16:00:50.000 2023
Software Version:             4.31.30023.0
Temperature (C):              -40
Model:                        DU940P_BU2
Data Type:                    Counts
Acquisition Mode:             Single Scan
Trigger Mode:                 Internal
Exposure Time (secs):         1
Readout Mode:                 Full Vertical Binning
Horizontal binning:           1
Extended Dynamic Range:       off
Horizontally flipped:         false
Vertical Shift Speed (usecs): 14.51
Pixel Readout Rate (MHz):     3
Baseline Clamp:               ON
Clock Amplitude:              Normal
Output Amplifier:             High Capacity
Serial Number:                23634
Pre-Amplifier Gain:           1.000000
Spurious Noise Filter Mode:   No Filter
Photon counted:               false
Data Averaging Filter Mode:   No Filter
SR500i:
Serial Number:                
Wavelength (nm):              255
Grating Groove Density (l/mm):1199.47
Grating Blaze:                500
Output Flipper Port:          Direct
Accessory Output Port 1:      Off
Accessory Output Port 2:      Off
Accessory Output Port 3:      Off
Accessory Input Port:         On



233.22879	5107
233.25017	4859
233.27155	4874
233.29292	4843
233.3143	4875
233.33568	4929
233.35706	4925
233.37842	4889
233.3998	4854
233.42117	4860
233.44255	4855
233.46393	4842
233.48531	4799
233.50668	4823
233.52805	4830
233.54942	4845
233.5708	4847
233.59218	4854
233.61356	4882
233.63492	4880
233.6563	4867
233.67767	4852
233.69904	4885
233.72041	4885
233.74179	4878
233.76317	4885
233.78453	4906
233.80591	4906
233.82729	4930
233.84865	4922
233.87003	4941
233.89139	4992
233.91277	4988
233.93414	5001
233.95551	4999
233.97688	4943
233.99825	4960
234.01962	5002
234.04099	5040
234.06236	5052
234.08374	5012
234.1051	4991
234.12648	4957
234.14784	4964
234.16922	4989
234.19058	4992
234.21194	5037
234.23332	5022
234.25468	5016
234.27606	5026
234.29742	5026
234.31879	5015
234.34016	5023
234.36153	5066
234.3829	5058
234.40427	5084
234.42563	5076
234.44701	5074
234.46837	5128
234.48973	5093
234.51111	5079
234.53247	5095
234.55383	5099
234.5752	5089
234.59657	5076
234.61794	5097
234.6393	5077
234.66066	5075
234.68202	5004
234.7034	4994
234.72476	5000
234.74612	5006
234.76749	4979
234.78885	5023
234.81021	5010
234.83159	5023
234.85295	4975
234.87431	4973
234.89568	4961
234.91704	4951
234.9384	5020
234.95976	4993
234.98112	5017
235.00249	5026
235.02385	5058
235.04521	5054
235.06657	5108
235.08794	5024
235.1093	5027
235.13066	5047
235.15202	5047
235.17339	5054
235.19475	5053
235.21611	5016
235.23747	5027
235.25883	5043
235.28018	5050
235.30154	5023
235.32291	5089
235.34427	5077
235.36563	5105
235.38699	5062
235.40836	5070
235.4297	5088
235.45107	5091
235.47243	5107
235.49379	5131
235.51514	5157
235.5365	5141
235.55786	5153
235.57922	5104
235.60057	5124
235.62193	5157
235.6433	5151
235.66464	5163
235.686	5230
235.70737	5150
235.72871	5142
235.75008	5153
235.77144	5177
235.79279	5152
235.81415	5172
235.83549	5152
235.85686	5147
235.87822	5144
235.89957	5170
235.92093	5133
235.94228	5122
235.96364	5158
235.98499	5190
236.00635	5185
236.02769	5155
236.04906	5192
236.0704	5191
236.09177	5185
236.11311	5133
236.13446	5151
236.15582	5202
236.17717	5154
236.19853	5156
236.21988	5118
236.24123	5127
236.26259	5179
236.28394	5172
236.30528	5164
236.32664	5169
236.34799	5190
236.36934	5166
236.3907	5221
236.41205	5201
236.4334	5265
236.45474	5255
236.4761	5257
236.49745	5286
236.5188	5297
236.54015	5311
236.56149	5302
236.58286	5309
236.6042	5286
236.62555	5311
236.6469	5296
236.66824	5289
236.68959	5338
236.71094	5332
236.73228	5315
236.75365	5371
236.77499	5380
236.79634	5391
236.81769	5436
236.83904	5417
236.86038	5381
236.88173	5406
236.90308	5490
236.92442	5455
236.94577	5504
236.96712	5570
236.98846	5557
237.00981	5588
237.03116	5582
237.05251	5566
237.07384	5585
237.09518	5554
237.11653	5581
237.13788	5568
237.15923	5602
237.18057	5610
237.20192	5556
237.22325	5557
237.2446	5534
237.26595	5509
237.28729	5505
237.30864	5531
237.32997	5520
237.35132	5567
237.37267	5572
237.39401	5588
237.41534	5611
237.43669	5641
237.45804	5653
237.47937	5678
237.50072	5681
237.52206	5714
237.5434	5694
237.56474	5682
237.58609	5671
237.60742	5710
237.62877	5691
237.65012	5693
237.67145	5626
237.69279	5641
237.71413	5711
237.73547	5697
237.75681	5689
237.77815	5723
237.79948	5746
237.82083	5695
237.84216	5663
237.86351	5704
237.88484	5726
237.90619	5739
237.92752	5769
237.94887	5783
237.9702	5788
237.99153	5786
238.01288	5760
238.03421	5755
238.05556	5765
238.07689	5785
238.09822	5759
238.11957	5804
238.1409	5760
238.16223	5723
238.18358	5778
238.20491	5841
238.22624	5857
238.24757	5896
238.26892	5905
238.29025	5885
238.31158	5882
238.33292	5901
238.35425	5911
238.3756	5939
238.39693	5987
238.41826	6014
238.43959	5990
238.46092	5976
238.48225	5997
238.5036	6032
238.52493	6055
238.54626	6022
238.5676	6068
238.58893	6032
238.61026	6032
238.63159	6051
238.65292	6058
238.67426	6075
238.69559	6037
238.71692	5992
238.73825	6030
238.75958	5999
238.78091	5991
238.80225	6068
238.82358	6083
238.84491	6089
238.86624	6075
238.88757	6129
238.90891	6154
238.93022	6144
238.95155	6135
238.97289	6124
238.99422	6177
239.01555	6108
239.03688	6144
239.0582	6161
239.07953	6161
239.10086	6160
239.12219	6133
239.14352	6150
239.16484	6199
239.18617	6148
239.2075	6144
239.22882	6109
239.25015	6076
239.27148	6092
239.2928	6092
239.31413	6101
239.33546	6108
239.35678	6156
239.37811	6112
239.39944	6163
239.42076	6147
239.44209	6179
239.46341	6160
239.48474	6165
239.50607	6157
239.52739	6173
239.54872	6175
239.57004	6177
239.59137	6214
239.61269	6241
239.63402	6221
239.65533	6190
239.67667	6248
239.69798	6309
239.7193	6292
239.74063	6289
239.76195	6232
239.78328	6247
239.8046	6270
239.82591	6317
239.84724	6321
239.86856	6342
239.88989	6310
239.91121	6306
239.93253	6380
239.95384	6355
239.97517	6355
239.99649	6349
240.01781	6342
240.03914	6386
240.06046	6424
240.08177	6404
240.10309	6402
240.1244	6443
240.14574	6430
240.16705	6445
240.18837	6479
240.20969	6457
240.231	6462
240.25232	6441
240.27365	6448
240.29497	6431
240.31628	6502
240.3376	6513
240.35892	6556
240.38023	6579
240.40155	6591
240.42287	6622
240.44418	6655
240.4655	6672
240.48682	6665
240.50813	6617
240.52945	6597
240.55077	6605
240.57208	6682
240.5934	6685
240.61472	6722
240.63603	6686
240.65735	6656
240.67865	6648
240.69997	6636
240.72128	6678
240.7426	6671
240.76392	6726
240.78523	6775
240.80655	6787
240.82785	6840
240.84917	6789
240.87048	6809
240.8918	6876
240.9131	6871
240.93442	6958
240.95573	6950
240.97705	6915
240.99835	6887
241.01967	6870
241.04099	6850
241.06229	6847
241.0836	6894
241.10492	6933
241.12622	6990
241.14754	7058
241.16884	6956
241.19016	6975
241.21147	6941
241.23277	6949
241.25409	7013
241.27539	6972
241.29671	7088
241.31801	7118
241.33932	7086
241.36063	7073
241.38194	7067
241.40324	7084
241.42456	7090
241.44586	7130
241.46718	7162
241.48848	7123
241.50978	7108
241.5311	7097
241.5524	7139
241.57372	7118
241.59502	7121
241.61632	7103
241.63763	7094
241.65894	7115
241.68024	7184
241.70155	7175
241.72285	7168
241.74416	7174
241.76546	7207
241.78677	7234
241.80807	7281
241.82938	7300
241.85068	7289
241.87199	7326
241.8933	7363
241.9146	7259
241.9359	7252
241.9572	7246
241.9785	7261
241.9998	7257
242.02112	7285
242.04242	7248
242.06372	7333
242.08502	7361
242.10632	7330
242.12762	7346
242.14893	7346
242.17023	7311
242.19153	7385
242.21283	7386
242.23413	7524
242.25543	7497
242.27673	7517
242.29803	7549
242.31934	7541
242.34064	7551
242.36194	7542
242.38324	7500
242.40453	7499
242.42583	7513
242.44713	7580
242.46843	7601
242.48973	7523
242.51103	7563
242.53232	7604
242.55362	7663
242.57492	7687
242.59622	7753
242.61752	7719
242.63881	7718
242.66011	7760
242.68141	7734
242.70271	7778
242.724	7813
242.7453	7915
242.7666	7981
242.78789	7944
242.80919	7971
242.83049	7939
242.85178	7961
242.87308	7935
242.89436	7972
242.91566	7972
242.93697	7971
242.95825	7938
242.97955	7960
243.00084	7932
243.02214	7991
243.04343	7937
243.06473	7896
243.08601	7949
243.10732	7896
243.1286	7966
243.1499	7977
243.17119	7944
243.19247	7956
243.21378	8029
243.23506	8079
243.25636	8121
243.27765	8100
243.29893	8117
243.32024	8110
243.34152	8074
243.36281	8078
243.38411	8087
243.4054	8076
243.42668	8087
243.44798	8063
243.46927	8019
243.49055	8030
243.51184	8051
243.53313	8068
243.55443	8038
243.57571	8111
243.597	8087
243.61829	8059
243.63957	8013
243.66087	8016
243.68216	8062
243.70345	8029
243.72473	8092
243.74602	8150
243.7673	8115
243.78859	8112
243.80988	8062
243.83116	8061
243.85245	8124
243.87373	8137
243.89502	8138
243.91631	8203
243.93759	8168
243.95888	8126
243.98016	8115
244.00145	8205
244.02274	8261
244.04402	8301
244.06531	8276
244.08659	8223
244.10788	8253
244.12917	8216
244.15044	8317
244.17172	8277
244.19301	8327
244.21429	8316
244.23558	8344
244.25685	8403
244.27814	8457
244.29942	8459
244.32071	8446
244.34198	8437
244.36327	8454
244.38455	8459
244.40584	8434
244.42711	8477
244.44839	8503
244.46968	8521
244.49095	8489
244.51224	8454
244.53352	8435
244.55479	8451
244.57608	8480
244.59735	8494
244.61864	8569
244.63991	8493
244.66119	8514
244.68248	8541
244.70375	8554
244.72504	8546
244.74631	8556
244.76759	8613
244.78886	8571
244.81013	8589
244.83142	8569
244.85269	8616
244.87398	8669
244.89525	8647
244.91653	8590
244.93781	8595
244.95908	8619
244.98036	8637
245.00163	8653
245.0229	8629
245.04419	8612
245.06546	8593
245.08673	8536
245.10802	8531
245.12929	8598
245.15056	8536
245.17183	8569
245.19312	8612
245.21439	8613
245.23566	8634
245.25693	8551
245.2782	8587
245.29947	8534
245.32076	8583
245.34203	8658
245.3633	8639
245.38457	8724
245.40584	8750
245.42711	8708
245.44838	8732
245.46965	8784
245.49092	8826
245.51219	8814
245.53346	8867
245.55473	8844
245.576	8893
245.59727	8782
245.61855	8763
245.63982	8841
245.66109	8851
245.68236	8842
245.70363	8971
245.7249	9006
245.74617	9036
245.76744	8979
245.78871	8992
245.80997	9033
245.83124	9002
245.85251	9093
245.87378	9087
245.89505	9164
245.91631	9146
245.93758	9148
245.95885	9108
245.98012	9120
246.00139	9114
246.02264	9155
246.04391	9218
246.06519	9255
246.08644	9244
246.10771	9144
246.12898	9236
246.15024	9177
246.17151	9233
246.19278	9249
246.21404	9274
246.23531	9385
246.25656	9348
246.27783	9336
246.29909	9353
246.32036	9381
246.34161	9446
246.36288	9417
246.38414	9559
246.40541	9557
246.42667	9548
246.44794	9558
246.46919	9419
246.49046	9396
246.51172	9459
246.53299	9449
246.55424	9525
246.5755	9577
246.59677	9568
246.61803	9609
246.63928	9667
246.66055	9690
246.68181	9730
246.70306	9785
246.72433	9802
246.74559	9856
246.76685	9802
246.78812	9807
246.80937	9862
246.83063	9875
246.85188	9883
246.87314	9894
246.89441	9989
246.91566	10075
246.93692	10065
246.95818	10085
246.97943	10049
247.00069	10088
247.02194	10133
247.0432	10255
247.06447	10297
247.08572	10413
247.10698	10481
247.12823	10519
247.14949	10498
247.17075	10476
247.192	10577
247.21326	10508
247.23451	10500
247.25577	10587
247.27702	10596
247.29828	10499
247.31953	10577
247.34077	10579
247.36203	10536
247.38329	10593
247.40454	10524
247.4258	10580
247.44705	10517
247.46831	10583
247.48955	10593
247.5108	10568
247.53206	10600
247.55331	10718
247.57457	10758
247.59581	10649
247.61707	10718
247.63832	10742
247.65956	10751
247.68082	10741
247.70207	10708
247.72333	10705
247.74457	10693
247.76582	10669
247.78706	10621
247.80832	10582
247.82957	10580
247.85081	10590
247.87207	10619
247.89331	10528
247.91457	10557
247.93582	10515
247.95706	10456
247.97832	10500
247.99956	10544
248.02081	10621
248.04205	10643
248.06329	10637
248.08455	10627
248.10579	10606
248.12704	10558
248.14828	10581
248.16954	10527
248.19078	10523
248.21202	10495
248.23328	10494
248.25452	10500
248.27576	10509
248.29701	10528
248.31825	10501
248.33949	10561
248.36073	10671
248.38199	10615
248.40323	10694
248.42447	10619
248.44571	10574
248.46696	10640
248.4882	10637
248.50945	10708
248.53069	10811
248.55193	10805
248.57317	10814
248.59442	10794
248.61566	10761
248.6369	10793
248.65814	10766
248.67938	10816
248.70062	10817
248.72186	10787
248.7431	10762
248.76434	10776
248.78558	10738
248.80682	10700
248.82806	10652
248.8493	10670
248.87054	10731
248.89178	10724
248.91302	10750
248.93427	10798
248.95551	10744
248.97675	10754
248.99797	10802
249.01921	10916
249.04045	10912
249.06169	10908
249.08293	10952
249.10417	10943
249.1254	10920
249.14664	10855
249.16788	10876
249.18912	10926
249.21034	10868
249.23158	10851
249.25282	10841
249.27406	10828
249.29529	10848
249.31653	10823
249.33777	10852
249.35899	10873
249.38023	10879
249.40146	10863
249.4227	10751
249.44394	10745
249.46516	10844
249.4864	10835
249.50763	10854
249.52887	10932
249.55009	10935
249.57133	10872
249.59256	10780
249.6138	10808
249.63503	10810
249.65627	10923
249.67749	10975
249.69873	11001
249.71996	10932
249.74118	10922
249.76242	10970
249.78365	11057
249.80489	11076
249.82611	11012
249.84734	10981
249.86858	10958
249.8898	10994
249.91103	10968
249.93225	11010
249.95349	11088
249.97472	11183
249.99594	11147
250.01717	11144
250.03841	11206
250.05963	11278
250.08086	11315
250.10208	11283
250.12331	11275
250.14453	11216
250.16577	11241
250.187	11193
250.20822	11279
250.22945	11350
250.25067	11333
250.2719	11310
250.29312	11291
250.31435	11206
250.33557	11267
250.3568	11350
250.37802	11397
250.39925	11419
250.42047	11318
250.4417	11380
250.46292	11460
250.48415	11485
250.50537	11489
250.5266	11524
250.54782	11476
250.56903	11548
250.59026	11481
250.61148	11514
250.63271	11524
250.65393	11551
250.67516	11545
250.69637	11557
250.71759	11604
250.73882	11692
250.76004	11687
250.78125	11699
250.80247	11608
250.8237	11693
250.84491	11596
250.86613	11479
250.88736	11455
250.90857	11467
250.92979	11420
250.95102	11471
250.97223	11542
250.99345	11556
251.01468	11484
251.03589	11438
251.05711	11427
251.07832	11415
251.09955	11453
251.12076	11547
251.14198	11668
251.16319	11725
251.18442	11588
251.20563	11614
251.22685	11743
251.24806	11715
251.26927	11729
251.2905	11771
251.31171	11818
251.33293	11870
251.35414	11811
251.37535	11732
251.39658	11683
251.41779	11685
251.439	11733
251.46022	11750
251.48143	11966
251.50264	12016
251.52385	11982
251.54507	11968
251.56628	12013
251.58749	12097
251.6087	12135
251.62991	12183
251.65114	12292
251.67235	12337
251.69356	12366
251.71477	12288
251.73598	12268
251.75719	12287
251.7784	12275
251.79961	12324
251.82082	12352
251.84203	12310
251.86324	12316
251.88446	12361
251.90567	12385
251.92688	12318
251.94807	12351
251.96928	12371
251.99049	12459
252.0117	12424
252.03291	12417
252.05412	12400
252.07533	12366
252.09654	12457
252.11775	12482
252.13896	12599
252.16016	12689
252.18137	12696
252.20258	12698
252.22379	12561
252.245	12535
252.26619	12502
252.2874	12524
252.30861	12567
252.32982	12623
252.35101	12722
252.37222	12688
252.39343	12662
252.41463	12740
252.43584	12669
252.45705	12680
252.47824	12759
252.49945	12775
252.52066	12790
252.54185	12821
252.56306	12738
252.58426	12764
252.60547	12746
252.62666	12708
252.64787	12735
252.66907	12908
252.69028	12963
252.71147	13064
252.73268	12927
252.75388	12951
252.77509	12932
252.79628	13012
252.81747	13085
252.83868	13123
252.85988	13255
252.88109	13187
252.90228	13271
252.92348	13274
252.94469	13324
252.96588	13329
252.98708	13327
253.00827	13388
253.02948	13450
253.05067	13398
253.07187	13369
253.09306	13382
253.11427	13361
253.13547	13371
253.15666	13262
253.17786	13240
253.19905	13253
253.22025	13258
253.24146	13300
253.26265	13350
253.28384	13398
253.30504	13401
253.32623	13474
253.34743	13565
253.36862	13520
253.38982	13513
253.41101	13580
253.43221	13558
253.4534	13598
253.47459	13531
253.49579	13518
253.51698	13573
253.53818	13554
253.55937	13433
253.58057	13444
253.60176	13456
253.62294	13541
253.64413	13460
253.66533	13478
253.68652	13432
253.70772	13386
253.72891	13367
253.75009	13413
253.77129	13583
253.79248	13616
253.81367	13639
253.83485	13709
253.85605	13662
253.87724	13599
253.89842	13605
253.91962	13603
253.94081	13640
253.96199	13674
253.98318	13791
254.00438	13851
254.02556	13785
254.04675	13773
254.06793	13788
254.08913	13930
254.11032	14076
254.1315	14117
254.15269	14186
254.17387	14161
254.19507	14128
254.21625	14019
254.23744	14021
254.25862	14154
254.2798	14192
254.30099	14389
254.32217	14358
254.34337	14423
254.36455	14480
254.38573	14453
254.40692	14446
254.4281	14408
254.44928	14410
254.47047	14433
254.49165	14361
254.51283	14287
254.53401	14363
254.55521	14345
254.57639	14284
254.59756	14267
254.61874	14333
254.63994	14491
254.66112	14510
254.6823	14494
254.70348	14519
254.72466	14486
254.74583	14559
254.76701	14721
254.78821	14818
254.80939	14771
254.83057	14735
254.85175	14865
254.87292	14983
254.8941	14936
254.91528	14790
254.93646	14768
254.95764	14849
254.97882	14839
255	14750
255.02118	14876
255.04234	14906
255.06352	15005
255.0847	15068
255.10588	15175
255.12706	15294
255.14824	15214
255.16942	15156
255.1906	15079
255.21176	15107
255.23294	15048
255.25412	15257
255.2753	15315
255.29646	15339
255.31764	15329
255.33882	15212
255.36	15168
255.38116	15191
255.40234	15219
255.42352	15317
255.44469	15442
255.46587	15550
255.48703	15592
255.50821	15494
255.52939	15564
255.55055	15619
255.57173	15659
255.5929	15677
255.61407	15723
255.63524	15634
255.65642	15682
255.67758	15612
255.69876	15654
255.71992	15675
255.7411	15684
255.76227	15725
255.78345	15864
255.80461	15935
255.82578	15948
255.84695	15927
255.86812	16011
255.88928	16086
255.91046	16111
255.93163	16185
255.95279	16255
255.97397	16249
255.99513	16215
256.0163	16160
256.03748	16140
256.05862	16218
256.0798	16258
256.10098	16400
256.12213	16330
256.14331	16418
256.16446	16423
256.18564	16395
256.20679	16409
256.22797	16423
256.24915	16500
256.27029	16575
256.29147	16574
256.31262	16541
256.3338	16488
256.35495	16536
256.37613	16561
256.39728	16655
256.41846	16652
256.43961	16666
256.46078	16725
256.48193	16801
256.50311	16794
256.52426	16851
256.54541	16667
256.56659	16675
256.58774	16585
256.60892	16395
256.63007	16265
256.65125	16250
256.67239	16195
256.69354	16256
256.71472	16324
256.73587	16404
256.75705	16432
256.7782	16407
256.79935	16429
256.82053	16441
256.84167	16339
256.86282	16469
256.884	16550
256.90515	16783
256.9263	16799
256.94748	16820
256.96863	16784
256.98978	16996
257.01093	17063
257.0321	17041
257.05325	17041
257.0744	17173
257.09558	17107
257.11673	16928
257.13788	16911
257.15903	16936
257.18021	16937
257.20135	16943
257.2225	17122
257.24365	17297
257.2648	17399
257.28598	17287
257.30713	17225
257.32828	17294
257.34943	17452
257.37057	17538
257.39172	17710
257.4129	17807
257.43405	17920
257.4552	17844
257.47635	17829
257.4975	17780
257.51865	17767
257.53979	17757
257.56094	17855
257.58212	17907
257.60327	17899
257.62442	17914
257.64557	17910
257.66672	17954
257.68787	17933
